时间 [s]	压缩应力 [MPa]	压缩应变 (应变 1) [%]	位移 [mm]
0	0.02391	-0.00001	123.82954
0.1	0.03398	0	123.82971
0.2	0.02845	-0.00252	123.82977
0.3	0.0315	-0.00254	123.82996
0.4	0.02024	-0.00255	123.8302
0.5	0.0263	-0.00036	123.83044
0.6	0.0378	0.001	123.83067
0.7	0.02248	0.00016	123.83087
0.8	0.03149	-0.00002	123.83108
0.9	0.03419	0	123.8313
1	0.03136	0.00006	123.83151
1.1	0.0266	0.00265	123.83171
1.2	0.02431	0.00012	123.83193
1.3	0.02426	0.00053	123.83215
1.4	0.02361	0.00257	123.83234
1.5	0.02604	0.00255	123.83255
1.6	0.02647	0.00042	123.83276
1.7	0.02085	-0.00023	123.83297
1.8	0.02723	-0.00036	123.83318
1.9	0.02241	-0.00108	123.83338
2	0.03137	-0.00255	123.8336
2.1	0.02025	-0.00253	123.83382
2.2	0.02703	-0.00307	123.83401
2.3	0.03318	-0.00252	123.83422
2.4	0.02357	-0.00022	123.83443
2.5	0.0313	-0.00244	123.83465
2.6	0.01851	-0.00255	123.83484
2.7	0.02719	-0.00048	123.83505
2.8	0.02699	-0.00265	123.83527
2.9	0.02815	-0.00268	123.83547
3	0.03436	-0.00254	123.83569
3.1	0.02615	-0.00335	123.83589
3.2	0.02472	-0.0051	123.8361
3.3	0.02785	-0.00509	123.8363
3.4	0.02143	-0.00481	123.83651
3.5	0.0332	-0.00094	123.83672
3.6	0.0284	-0.00137	123.83694
3.7	0.02982	-0.00004	123.83714
3.8	0.03	-0.00244	123.83735
3.9	0.03122	0.00011	123.83756
4	0.03184	0	123.83776
4.1	0.02463	-0.0018	123.83797
4.2	0.02812	-0.00254	123.83818
4.3	0.02301	-0.00175	123.83839
4.4	0.02984	-0.00254	123.83858
4.5	0.02888	-0.00255	123.83881
4.6	0.02723	-0.00247	123.83902
4.7	0.02327	0.00003	123.83923
4.8	0.02534	-0.00239	123.83943
4.9	0.0309	-0.00017	123.83964
5	0.02519	-0.00236	123.83985
5.1	0.02947	-0.00345	123.84006
5.2	0.02619	-0.00238	123.84026
5.3	0.02579	-0.00063	123.84047
5.4	0.0322	-0.00258	123.84069
5.5	0.02224	-0.00109	123.84089
5.6	0.02728	-0.00122	123.8411
5.7	0.03124	-0.00012	123.84131
5.8	0.03097	-0.00004	123.84151
5.9	0.02912	-0.00219	123.84172
6	0.02798	-0.00254	123.84193
6.1	0.0263	-0.00226	123.84213
6.2	0.03001	0.00004	123.84236
6.3	0.02219	0	123.84254
6.4	0.03191	-0.00237	123.84277
6.5	0.02706	-0.00185	123.84298
6.6	0.02562	-0.00237	123.84319
6.7	0.03435	-0.00002	123.84338
6.8	0.02651	-0.00209	123.8436
6.9	0.02773	0.00005	123.8438
7	0.02569	-0.00016	123.84401
7.1	0.02408	0	123.84422
7.2	0.02539	0	123.84444
7.3	0.02735	-0.00001	123.84464
7.4	0.02771	0	123.84485
7.5	0.02268	-0.00143	123.84505
7.6	0.02865	-0.00255	123.84526
7.7	0.02493	-0.00255	123.84547
7.8	0.0283	-0.00093	123.84567
7.9	0.02912	-0.00241	123.84589
8	0.02523	0.00003	123.84611
8.1	0.02254	0	123.84631
8.2	0.02615	0	123.84652
8.3	0.03393	-0.00001	123.84673
8.4	0.03015	-0.00001	123.84693
8.5	0.03126	0	123.84714
8.6	0.02306	0.00111	123.84734
8.7	0.02507	-0.00077	123.84755
8.8	0.02825	-0.00266	123.84776
8.9	0.02656	-0.00249	123.84798
9	0.03576	0.00003	123.84818
9.1	0.02627	-0.00024	123.8484
9.2	0.02004	0.00071	123.8486
9.3	0.03167	0.00255	123.8488
9.4	0.02458	-0.00102	123.84901
9.5	0.02878	-0.00256	123.84922
9.6	0.02425	0.00031	123.84943
9.7	0.03106	-0.00001	123.84963
9.8	0.03475	-0.00004	123.84985
9.9	0.02491	0	123.85006
10	0.02676	-0.00221	123.85027
10.1	0.0178	-0.00191	123.85047
10.2	0.0335	-0.00223	123.85068
10.3	0.02814	0.0001	123.85089
10.4	0.02152	-0.00233	123.85109
10.5	0.02996	-0.00244	123.8513
10.6	0.02737	-0.00186	123.85152
10.7	0.03202	-0.00254	123.85173
10.8	0.02594	-0.00241	123.85194
10.9	0.02071	0.00004	123.85214
11	0.02891	-0.00015	123.85235
11.1	0.02199	0	123.85256
11.2	0.03401	-0.00001	123.85276
11.3	0.03106	0	123.85297
11.4	0.02287	0	123.8532
11.5	0.02649	0.00003	123.85339
11.6	0.02019	-0.0023	123.8536
11.7	0.0337	-0.00061	123.85381
11.8	0.02308	-0.00059	123.85402
11.9	0.02745	-0.00128	123.85422
12	0.02449	0.00023	123.85443
12.1	0.02689	-0.00207	123.85464
12.2	0.02962	-0.0021	123.85484
12.3	0.02205	-0.0024	123.85506
12.4	0.02833	-0.00019	123.85527
12.5	0.03342	-0.00233	123.85548
12.6	0.02775	-0.00238	123.85568
12.7	0.02934	-0.00255	123.85589
12.8	0.02464	-0.00509	123.85609
12.9	0.03113	-0.00248	123.85631
13	0.02489	-0.00255	123.85651
13.1	0.02559	-0.00255	123.85673
13.2	0.03034	-0.00255	123.85694
13.3	0.02823	-0.00246	123.85715
13.4	0.03196	-0.00156	123.85735
13.5	0.02683	-0.0024	123.85756
13.6	0.03147	-0.00254	123.85777
13.7	0.02798	-0.00255	123.85797
13.8	0.02602	-0.00255	123.85818
13.9	0.0326	-0.00253	123.85838
14	0.02395	-0.00255	123.8586
14.1	0.03537	-0.00464	123.85881
14.2	0.03119	-0.00244	123.85902
14.3	0.02451	-0.00555	123.85923
14.4	0.03	-0.00484	123.85944
14.5	0.02861	-0.00167	123.85963
14.6	0.02624	0.00105	123.85985
14.7	0.0302	-0.00002	123.86005
14.8	0.03054	0.00041	123.86026
14.9	0.03213	0.00049	123.86048
15	0.02629	0.0002	123.86069
15.1	0.0273	-0.00263	123.86089
15.2	0.03608	-0.00196	123.86111
15.3	0.02348	-0.0001	123.86131
15.4	0.02773	-0.00034	123.86151
15.5	0.02349	0	123.86172
15.6	0.03121	-0.00185	123.86193
15.7	0.02573	-0.00254	123.86213
15.8	0.03113	-0.00255	123.86234
15.9	0.02671	-0.00519	123.86256
16	0.01534	-0.00509	123.86276
16.1	0.03041	-0.00397	123.86298
16.2	0.0308	-0.00516	123.86318
16.3	0.02881	-0.00509	123.86339
16.4	0.02474	-0.00397	123.86359
16.5	0.02592	-0.00262	123.8638
16.6	0.02679	-0.00255	123.86402
16.7	0.01992	-0.00255	123.86422
16.8	0.02871	-0.00255	123.86443
16.9	0.02737	-0.00078	123.86465
17	0.0316	-0.00165	123.86485
17.1	0.01967	0.00008	123.86505
17.2	0.02095	0.00012	123.86526
17.3	0.03383	0	123.86547
17.4	0.02608	0.00131	123.86568
17.5	0.02742	-0.00001	123.8659
17.6	0.02905	-0.00189	123.8661
17.7	0.02378	-0.00259	123.86631
17.8	0.03325	-0.00255	123.86652
17.9	0.02036	-0.00255	123.86672
18	0.03154	-0.00424	123.86693
18.1	0.0239	-0.00225	123.86714
18.2	0.02803	-0.00285	123.86735
18.3	0.02571	-0.00369	123.86755
18.4	0.02564	-0.00254	123.86776
18.5	0.02879	-0.00101	123.86798
18.6	0.01959	-0.00261	123.86817
18.7	0.02441	0.00001	123.86839
18.8	0.03389	-0.00192	123.8686
18.9	0.03299	0.00003	123.8688
19	0.02903	0	123.86901
19.1	0.02104	-0.00261	123.86922
19.2	0.02901	-0.00489	123.86944
19.3	0.02891	-0.00509	123.86965
19.4	0.02991	-0.00434	123.86985
19.5	0.03727	0.00004	123.87006
19.6	0.0245	-0.00256	123.87027
19.7	0.0268	0.00011	123.87048
19.8	0.01853	-0.00198	123.87068
19.9	0.02889	-0.00256	123.87089
20	0.02461	-0.00471	123.87109
20.1	0.02481	-0.00245	123.87132
20.2	0.03527	-0.00255	123.87151
20.3	0.02807	-0.00255	123.87173
20.4	0.02849	-0.00254	123.87194
20.5	0.02528	-0.00118	123.87214
20.6	0.02839	-0.00258	123.87233
20.7	0.02598	-0.00241	123.87256
20.8	0.02165	-0.00004	123.87276
20.9	0.03003	-0.00246	123.87296
21	0.02369	-0.0023	123.87318
21.1	0.02718	-0.00105	123.8734
21.2	0.02793	-0.00261	123.8736
21.3	0.02404	-0.00254	123.87381
21.4	0.03067	-0.00199	123.87402
21.5	0.02704	-0.0006	123.87422
21.6	0.02321	-0.00025	123.87444
21.7	0.0302	-0.00146	123.87463
21.8	0.02676	-0.0029	123.87484
21.9	0.02718	-0.00236	123.87507
22	0.02558	0.0001	123.87527
22.1	0.0358	-0.0002	123.87547
22.2	0.02743	-0.00013	123.87569
22.3	0.03527	-0.00257	123.87589
22.4	0.02522	-0.00245	123.8761
22.5	0.03082	-0.00254	123.8763
22.6	0.02679	-0.00255	123.87651
22.7	0.0258	-0.0045	123.87672
22.8	0.02657	-0.00509	123.87692
22.9	0.02864	-0.00509	123.87713
23	0.03048	-0.00248	123.87734
23.1	0.02804	-0.00374	123.87756
23.2	0.02582	-0.00625	123.87776
23.3	0.03056	-0.00766	123.87798
23.4	0.02494	-0.00764	123.87818
23.5	0.02093	-0.005	123.87838
23.6	0.02661	-0.00336	123.87859
23.7	0.02968	-0.00194	123.87881
23.8	0.02507	0.00003	123.87902
23.9	0.02348	-0.0025	123.87923
24	0.02529	-0.00226	123.87943
24.1	0.02507	0.00001	123.87964
24.2	0.0236	-0.00262	123.87985
24.3	0.02544	-0.00254	123.88005
24.4	0.02679	-0.00412	123.88026
24.5	0.02848	-0.00245	123.88047
24.6	0.0269	-0.00515	123.88068
24.7	0.02311	-0.00411	123.88089
24.8	0.02968	-0.00503	123.8811
24.9	0.0279	-0.00275	123.88131
25	0.03339	-0.00142	123.88151
25.1	0.02864	-0.00269	123.88172
25.2	0.02449	-0.00512	123.88193
25.3	0.02336	-0.00571	123.88213
25.4	0.02131	-0.00412	123.88234
25.5	0.02963	-0.00344	123.88255
25.6	0.02632	-0.00119	123.88277
25.7	0.02399	-0.00195	123.88297
25.8	0.02147	-0.00277	123.88318
25.9	0.0319	-0.00297	123.88339
26	0.02919	-0.00363	123.8836
26.1	0.02397	-0.00451	123.8838
26.2	0.03362	-0.00273	123.88401
26.3	0.03015	-0.00255	123.88423
26.4	0.02719	-0.00255	123.88444
26.5	0.02924	-0.00114	123.88464
26.6	0.02247	-0.00255	123.88485
26.7	0.02934	-0.00448	123.88506
26.8	0.02591	-0.00254	123.88527
26.9	0.02962	-0.00391	123.88547
27	0.0303	-0.00252	123.88567
27.1	0.02854	-0.00255	123.88589
27.2	0.03254	-0.00255	123.88609
27.3	0.01787	-0.00155	123.88631
27.4	0.02821	-0.00284	123.88652
27.5	0.03159	-0.00412	123.88673
27.6	0.02656	-0.00254	123.88692
27.7	0.0289	-0.00518	123.88714
27.8	0.02714	-0.00432	123.88734
27.9	0.03371	-0.00626	123.88755
28	0.02561	-0.005	123.88777
28.1	0.02774	-0.00307	123.88798
28.2	0.02671	-0.00427	123.88818
28.3	0.02494	-0.0051	123.8884
28.4	0.03085	-0.00509	123.8886
28.5	0.01986	-0.00246	123.88881
28.6	0.02694	-0.00255	123.88902
28.7	0.02862	-0.00254	123.88922
28.8	0.01933	0.00009	123.88944
28.9	0.02262	-0.00251	123.88965
29	0.02908	-0.00256	123.88985
29.1	0.02682	-0.00267	123.89006
29.2	0.02751	-0.0061	123.89027
29.3	0.02824	-0.00765	123.89047
29.4	0.0287	-0.00764	123.89069
29.5	0.02558	-0.0076	123.89088
29.6	0.02928	-0.00671	123.89111
29.7	0.02944	-0.00413	123.89132
29.8	0.02231	-0.00513	123.89152
29.9	0.02549	-0.00494	123.89172
30	0.02504	-0.00502	123.89194
30.1	0.02878	-0.00509	123.89214
30.2	0.02274	-0.00249	123.89234
30.3	0.0298	-0.00519	123.89256
30.4	0.0314	-0.00244	123.89276
30.5	0.02429	-0.00073	123.89297
30.6	0.03393	-0.00258	123.89319
30.7	0.02501	-0.00254	123.89338
30.8	0.02862	-0.00256	123.8936
30.9	0.02749	-0.00257	123.89381
31	0.02843	-0.00254	123.89401
31.1	0.03515	-0.00255	123.89422
31.2	0.0255	-0.00513	123.89443
31.3	0.02803	-0.00517	123.89464
31.4	0.03078	-0.00509	123.89484
31.5	0.03014	-0.00509	123.89507
31.6	0.02388	-0.00329	123.89527
31.7	0.02857	-0.00558	123.89548
31.8	0.03098	-0.00573	123.89568
31.9	0.02225	-0.00505	123.89589
32	0.02815	-0.00322	123.8961
32.1	0.03013	-0.00515	123.8963
32.2	0.02482	-0.00509	123.89651
32.3	0.03092	-0.00731	123.89674
32.4	0.02448	-0.0051	123.89693
32.5	0.02773	-0.0055	123.89713
32.6	0.02786	-0.00504	123.89734
32.7	0.03064	-0.00509	123.89756
32.8	0.02357	-0.00256	123.89777
32.9	0.02793	-0.00515	123.89797
33	0.02974	-0.00949	123.89818
33.1	0.03066	-0.00849	123.89838
33.2	0.02654	-0.00757	123.8986
33.3	0.02829	-0.00764	123.8988
33.4	0.02543	-0.01004	123.89902
33.5	0.02767	-0.01051	123.89923
33.6	0.02357	-0.00894	123.89943
33.7	0.02944	-0.00662	123.89964
33.8	0.02858	-0.00769	123.89985
33.9	0.02933	-0.00638	123.90006
34	0.0235	-0.00766	123.90025
34.1	0.02188	-0.00764	123.90048
34.2	0.0294	-0.00764	123.90069
34.3	0.03015	-0.00764	123.90089
34.4	0.03013	-0.00633	123.9011
34.5	0.01738	-0.00509	123.90131
34.6	0.02435	-0.00467	123.90152
34.7	0.02801	-0.00097	123.90172
34.8	0.02993	-0.00409	123.90192
34.9	0.03015	-0.00245	123.90214
35	0.03125	-0.00255	123.90234
35.1	0.03546	-0.00241	123.90254
35.2	0.02963	-0.00288	123.90277
35.3	0.01997	-0.00629	123.90298
35.4	0.03261	-0.00541	123.90318
35.5	0.03482	-0.0051	123.90339
35.6	0.02435	-0.00501	123.90359
35.7	0.02652	-0.00246	123.9038
35.8	0.02374	-0.00255	123.90401
35.9	0.03267	-0.00515	123.90423
36	0.03026	-0.00509	123.90443
36.1	0.03017	-0.00509	123.90465
36.2	0.02357	-0.00768	123.90485
36.3	0.01808	-0.00498	123.90505
36.4	0.02998	-0.00502	123.90527
36.5	0.02763	-0.0051	123.90547
36.6	0.03134	-0.00416	123.90567
36.7	0.02723	-0.0025	123.9059
36.8	0.02921	-0.00463	123.90611
36.9	0.0287	-0.0025	123.90631
37	0.02859	-0.00089	123.90652
37.1	0.02853	0	123.90672
37.2	0.02299	-0.00238	123.90693
37.3	0.03064	-0.00255	123.90714
37.4	0.0268	-0.00088	123.90734
37.5	0.01802	0	123.90755
37.6	0.03173	-0.00261	123.90776
37.7	0.02287	-0.00256	123.90797
37.8	0.0244	-0.00245	123.90819
37.9	0.02643	-0.00379	123.90839
38	0.02564	-0.00511	123.9086
38.1	0.03109	-0.00509	123.90881
38.2	0.02387	-0.00351	123.90901
38.3	0.02442	-0.0027	123.90922
38.4	0.0326	-0.00255	123.90944
38.5	0.02207	-0.00255	123.90965
38.6	0.03052	-0.00459	123.90985
38.7	0.0241	-0.00509	123.91006
38.8	0.02178	-0.00509	123.91026
38.9	0.02623	-0.0027	123.91047
39	0.02587	-0.00264	123.91068
39.1	0.0257	-0.00514	123.91089
39.2	0.02177	-0.00509	123.91109
39.3	0.02522	-0.00509	123.9113
39.4	0.02666	-0.00509	123.91151
39.5	0.03311	-0.00575	123.91173
39.6	0.02837	-0.0051	123.91193
39.7	0.02586	-0.00773	123.91214
39.8	0.02689	-0.00764	123.91235
39.9	0.02404	-0.00466	123.91256
40	0.02466	-0.0026	123.91276
40.1	0.02503	-0.00255	123.91297
40.2	0.03176	-0.00241	123.91318
40.3	0.03021	-0.00519	123.91339
40.4	0.02103	-0.00488	123.9136
40.5	0.02807	-0.00358	123.91381
40.6	0.02556	-0.00513	123.91402
40.7	0.02353	-0.00509	123.91422
40.8	0.02457	-0.00509	123.91443
40.9	0.02738	-0.00509	123.91465
41	0.02888	-0.00696	123.91486
41.1	0.02826	-0.00503	123.91506
41.2	0.02585	-0.00509	123.91527
41.3	0.02707	-0.00509	123.91548
41.4	0.02538	-0.00576	123.91569
41.5	0.03041	-0.0051	123.91589
41.6	0.02773	-0.00488	123.9161
41.7	0.0325	-0.00491	123.91631
41.8	0.02889	-0.00378	123.91651
41.9	0.02147	-0.00566	123.91672
42	0.03219	-0.00772	123.91694
42.1	0.02395	-0.00764	123.91713
42.2	0.02959	-0.00609	123.91734
42.3	0.02455	-0.005	123.91756
42.4	0.02582	-0.00504	123.91776
42.5	0.02873	-0.00234	123.91798
42.6	0.02398	-0.00286	123.91817
42.7	0.02774	-0.00762	123.91838
42.8	0.02482	-0.00763	123.91859
42.9	0.03133	-0.00502	123.91881
43	0.03375	-0.00519	123.91901
43.1	0.02934	-0.00583	123.91923
43.2	0.03203	-0.00769	123.91943
43.3	0.02373	-0.00645	123.91964
43.4	0.02792	-0.00761	123.91985
43.5	0.02201	-0.00454	123.92005
43.6	0.02573	-0.00512	123.92028
43.7	0.03011	-0.00509	123.92046
43.8	0.02813	-0.00509	123.92068
43.9	0.03561	-0.00339	123.9209
44	0.02668	-0.00255	123.9211
44.1	0.02667	-0.00255	123.9213
44.2	0.02822	-0.00255	123.92152
44.3	0.02897	-0.00313	123.92172
44.4	0.03445	-0.00501	123.92193
44.5	0.02527	-0.00453	123.92213
44.6	0.02927	-0.00255	123.92234
44.7	0.02631	-0.00682	123.92255
44.8	0.02811	-0.00769	123.92277
44.9	0.0308	-0.00505	123.92297
45	0.02488	-0.00754	123.92318
45.1	0.02966	-0.00753	123.92339
45.2	0.02688	-0.00638	123.92359
45.3	0.026	-0.00304	123.9238
45.4	0.02281	-0.00255	123.92403
45.5	0.02968	-0.00366	123.92422
45.6	0.03876	-0.0051	123.92443
45.7	0.02937	-0.00509	123.92464
45.8	0.02774	-0.00509	123.92485
45.9	0.02829	-0.00317	123.92506
46	0.02202	-0.00515	123.92526
46.1	0.03074	-0.00509	123.92547
46.2	0.02731	-0.00373	123.92568
46.3	0.02925	-0.00371	123.92589
46.4	0.02706	-0.00246	123.9261
46.5	0.02603	-0.00513	123.92632
46.6	0.03263	-0.00247	123.92652
46.7	0.02383	-0.00383	123.92672
46.8	0.02919	-0.00507	123.92693
46.9	0.02516	-0.00509	123.92714
47	0.03069	-0.00509	123.92735
47.1	0.0274	-0.00509	123.92755
47.2	0.02455	-0.00509	123.92776
47.3	0.02917	-0.00509	123.92798
47.4	0.02713	-0.00509	123.92818
47.5	0.03508	-0.00509	123.92839
47.6	0.03176	-0.00351	123.9286
47.7	0.02229	-0.00511	123.92881
47.8	0.02089	-0.00509	123.92901
47.9	0.03004	-0.00509	123.92921
48	0.02133	-0.00454	123.92943
48.1	0.0232	-0.00509	123.92965
48.2	0.02681	-0.00699	123.92983
48.3	0.02849	-0.00571	123.93006
48.4	0.02501	-0.0051	123.93027
48.5	0.02681	-0.00509	123.93047
48.6	0.02766	-0.00645	123.93068
48.7	0.02473	-0.00544	123.93089
48.8	0.02952	-0.0051	123.93109
48.9	0.0219	-0.00505	123.93131
49	0.02686	-0.00693	123.93152
49.1	0.02971	-0.00587	123.93172
49.2	0.02808	-0.00507	123.93194
49.3	0.02918	-0.0052	123.93214
49.4	0.02984	-0.0051	123.93235
49.5	0.03126	-0.00471	123.93256
49.6	0.02802	-0.00253	123.93276
49.7	0.02481	-0.00255	123.93297
49.8	0.02563	-0.00255	123.93317
49.9	0.02394	-0.00255	123.93338
50	0.03279	-0.00375	123.93361
50.1	0.02521	-0.00258	123.93381
50.2	0.02845	-0.00255	123.93401
50.3	0.02134	-0.00725	123.93423
50.4	0.02151	-0.005	123.93443
50.5	0.02583	-0.00509	123.93463
50.6	0.03117	-0.00509	123.93486
50.7	0.03674	-0.00509	123.93505
50.8	0.03096	-0.00509	123.93526
50.9	0.02588	-0.00244	123.93548
51	0.02551	-0.00297	123.93568
51.1	0.0281	-0.00361	123.93589
51.2	0.02472	-0.00519	123.9361
51.3	0.02518	-0.0037	123.9363
51.4	0.02516	-0.00692	123.93652
51.5	0.0333	-0.00727	123.93672
51.6	0.0317	-0.00504	123.93694
51.7	0.02433	-0.00549	123.93714
51.8	0.02361	-0.00567	123.93736
51.9	0.02881	-0.00522	123.93755
52	0.02843	-0.00509	123.93777
52.1	0.02842	-0.00509	123.93797
52.2	0.0233	-0.00681	123.93818
52.3	0.02527	-0.00764	123.93839
52.4	0.03291	-0.01027	123.93859
52.5	0.02844	-0.01019	123.9388
52.6	0.03088	-0.00957	123.93903
52.7	0.03241	-0.00541	123.93922
52.8	0.024	-0.00766	123.93943
52.9	0.02789	-0.00759	123.93964
53	0.03043	-0.00407	123.93985
53.1	0.03611	-0.00258	123.94005
53.2	0.02782	-0.00257	123.94028
53.3	0.02661	-0.00255	123.94048
53.4	0.02095	-0.00224	123.94068
53.5	0.03197	0.00008	123.9409
53.6	0.02924	-0.00265	123.9411
53.7	0.02498	-0.00493	123.94131
53.8	0.03206	-0.00674	123.94151
53.9	0.02629	-0.00364	123.94172
54	0.02531	-0.00503	123.94193
54.1	0.03306	-0.0076	123.94214
54.2	0.02479	-0.00762	123.94234
54.3	0.02662	-0.00681	123.94254
54.4	0.02209	-0.00509	123.94277
54.5	0.02644	-0.00774	123.94298
54.6	0.02778	-0.00749	123.94318
54.7	0.01948	-0.00582	123.94339
54.8	0.0307	-0.00509	123.9436
54.9	0.03032	-0.00509	123.9438
55	0.02793	-0.00517	123.94401
55.1	0.02649	-0.00557	123.94423
55.2	0.0295	-0.00683	123.94444
55.3	0.02408	-0.00507	123.94464
55.4	0.02494	-0.00534	123.94485
55.5	0.02414	-0.00581	123.94506
55.6	0.03447	-0.00768	123.94527
55.7	0.02511	-0.00498	123.94547
55.8	0.02396	-0.00732	123.94569
55.9	0.02984	-0.00503	123.9459
56	0.02353	-0.0051	123.9461
56.1	0.02794	-0.00509	123.94631
56.2	0.02765	-0.00268	123.94652
56.3	0.0293	-0.00515	123.94672
56.4	0.03254	-0.00725	123.94693
56.5	0.03457	-0.00751	123.94714
56.6	0.02138	-0.00996	123.94734
56.7	0.02545	-0.00847	123.94756
56.8	0.02894	-0.005	123.94775
56.9	0.03027	-0.00552	123.94796
57	0.02725	-0.00509	123.94819
57.1	0.02879	-0.00509	123.94839
57.2	0.02598	-0.00509	123.94859
57.3	0.02662	-0.00428	123.94881
57.4	0.0268	-0.00366	123.94901
57.5	0.02966	-0.00608	123.94922
57.6	0.02679	-0.0071	123.94944
57.7	0.02654	-0.00757	123.94965
57.8	0.02711	-0.00499	123.94985
57.9	0.02717	-0.00509	123.95006
58	0.02812	-0.00625	123.95026
58.1	0.02341	-0.00572	123.95048
58.2	0.02594	-0.00509	123.95068
58.3	0.02544	-0.00509	123.95088
58.4	0.02972	-0.00743	123.9511
58.5	0.0336	-0.00735	123.95132
58.6	0.02736	-0.00863	123.95152
58.7	0.02966	-0.00824	123.95173
58.8	0.03186	-0.00759	123.95193
58.9	0.03187	-0.00764	123.95214
59	0.02466	-0.00696	123.95235
59.1	0.03133	-0.00508	123.95255
59.2	0.03442	-0.00247	123.95276
59.3	0.02311	-0.00519	123.95297
59.4	0.03364	-0.00509	123.95319
59.5	0.03112	-0.00509	123.95339
59.6	0.02369	-0.00509	123.95361
59.7	0.0253	-0.00509	123.95381
59.8	0.02496	-0.00494	123.95401
59.9	0.03013	-0.00287	123.95422
60	0.02114	-0.00255	123.95443
60.1	0.02768	-0.0052	123.95464
60.2	0.0294	-0.00509	123.95486
60.3	0.02179	-0.00509	123.95506
60.4	0.02852	-0.00562	123.95527
60.5	0.02832	-0.00643	123.95547
60.6	0.03359	-0.0058	123.95568
60.7	0.02554	-0.00554	123.95589
60.8	0.02346	-0.00732	123.9561
60.9	0.03172	-0.00599	123.9563
61	0.02425	-0.0028	123.95651
61.1	0.03169	-0.00255	123.95672
61.2	0.02859	-0.00515	123.95692
61.3	0.03204	-0.00509	123.95713
61.4	0.02926	-0.00509	123.95734
61.5	0.02289	-0.00772	123.95754
61.6	0.03179	-0.00669	123.95777
61.7	0.0214	-0.00596	123.95797
61.8	0.02852	-0.00618	123.95818
61.9	0.03029	-0.00765	123.95839
62	0.02362	-0.0069	123.9586
62.1	0.02961	-0.00509	123.95879
62.2	0.02121	-0.00671	123.95902
62.3	0.03198	-0.00766	123.95923
62.4	0.02074	-0.00767	123.95943
62.5	0.02154	-0.00764	123.95964
62.6	0.02979	-0.00505	123.95985
62.7	0.02623	-0.00772	123.96005
62.8	0.03165	-0.00751	123.96027
62.9	0.02274	-0.00564	123.96046
63	0.03006	-0.005	123.96069
63.1	0.02667	-0.00569	123.9609
63.2	0.02889	-0.00679	123.9611
63.3	0.02926	-0.00508	123.9613
63.4	0.0221	-0.00459	123.96152
63.5	0.0282	-0.00509	123.96172
63.6	0.02829	-0.00301	123.96193
63.7	0.02804	-0.00255	123.96214
63.8	0.02568	-0.00255	123.96234
63.9	0.02065	-0.00514	123.96255
64	0.02826	-0.00616	123.96277
64.1	0.03609	-0.00534	123.96297
64.2	0.03147	-0.00516	123.96319
64.3	0.02616	-0.0051	123.96339
64.4	0.02554	-0.00716	123.96359
64.5	0.03085	-0.00764	123.96381
64.6	0.02604	-0.00764	123.96401
64.7	0.02148	-0.00554	123.96423
64.8	0.02853	-0.00286	123.96444
64.9	0.02235	-0.00255	123.96465
65	0.03287	-0.0049	123.96484
65.1	0.02714	-0.00619	123.96506
65.2	0.02772	-0.00514	123.96526
65.3	0.02835	-0.00577	123.96547
65.4	0.02408	-0.0077	123.96569
65.5	0.02433	-0.00764	123.9659
65.6	0.031	-0.00764	123.9661
65.7	0.02618	-0.0051	123.96632
65.8	0.02982	-0.0077	123.96651
65.9	0.02694	-0.0073	123.96672
66	0.02817	-0.00508	123.96693
66.1	0.03086	-0.00738	123.96714
66.2	0.03109	-0.005	123.96734
66.3	0.02848	-0.0059	123.96755
66.4	0.03029	-0.00705	123.96777
66.5	0.02274	-0.00499	123.96797
66.6	0.02505	-0.00509	123.96819
66.7	0.0279	-0.00509	123.96839
66.8	0.02208	-0.00925	123.9686
66.9	0.02778	-0.00802	123.9688
67	0.02232	-0.00895	123.96901
67.1	0.02372	-0.01019	123.96922
67.2	0.02926	-0.00759	123.96944
67.3	0.03117	-0.00764	123.96964
67.4	0.029	-0.00764	123.96986
67.5	0.02728	-0.00749	123.97006
67.6	0.02956	-0.00767	123.97027
67.7	0.02776	-0.00765	123.97047
67.8	0.03359	-0.00764	123.9707
67.9	0.02672	-0.00746	123.97089
68	0.02496	-0.00507	123.9711
68.1	0.0266	-0.00639	123.97131
68.2	0.0256	-0.00652	123.97152
68.3	0.02987	-0.00514	123.97173
68.4	0.02793	-0.00769	123.97193
68.5	0.02968	-0.00643	123.97214
68.6	0.03052	-0.00823	123.97235
68.7	0.03096	-0.0102	123.97256
68.8	0.03116	-0.01271	123.97276
68.9	0.02576	-0.00928	123.97297
69	0.01808	-0.00767	123.97319
69.1	0.02834	-0.00774	123.97338
69.2	0.02147	-0.00762	123.9736
69.3	0.02861	-0.00764	123.97381
69.4	0.02574	-0.00934	123.97401
69.5	0.02545	-0.0102	123.97422
69.6	0.03302	-0.01019	123.97443
69.7	0.02536	-0.00756	123.97464
69.8	0.02869	-0.00764	123.97485
69.9	0.02218	-0.00811	123.97506
70	0.03	-0.01027	123.97527
70.1	0.02429	-0.00872	123.97548
70.2	0.02412	-0.0076	123.97569
70.3	0.03138	-0.00764	123.97589
70.4	0.02569	-0.00462	123.9761
70.5	0.02411	-0.00484	123.97632
70.6	0.02236	-0.00765	123.97652
70.7	0.02711	-0.00764	123.97673
70.8	0.0293	-0.01027	123.97692
70.9	0.02654	-0.01019	123.97713
71	0.03538	-0.01019	123.97734
71.1	0.02978	-0.00759	123.97755
71.2	0.03372	-0.00764	123.97777
71.3	0.03255	-0.00683	123.97797
71.4	0.0265	-0.00764	123.97817
71.5	0.03994	-0.00877	123.97839
71.6	0.0281	-0.00769	123.97859
71.7	0.02484	-0.00778	123.9788
71.8	0.02623	-0.00764	123.97902
71.9	0.02341	-0.00764	123.97923
72	0.03153	-0.00744	123.97943
72.1	0.02498	-0.00524	123.97964
72.2	0.03044	-0.00522	123.97984
72.3	0.02671	-0.00766	123.98005
72.4	0.02575	-0.01	123.98028
72.5	0.03854	-0.01022	123.98048
72.6	0.03247	-0.00993	123.98068
72.7	0.03451	-0.0097	123.9809
72.8	0.02227	-0.00956	123.9811
72.9	0.02237	-0.00755	123.98131
73	0.0299	-0.00534	123.98151
73.1	0.02066	-0.00578	123.98172
73.2	0.03393	-0.00525	123.98193
73.3	0.02202	-0.00798	123.98213
73.4	0.027	-0.01011	123.98234
73.5	0.02797	-0.00882	123.98255
73.6	0.02836	-0.00764	123.98276
73.7	0.03489	-0.00929	123.98297
73.8	0.02868	-0.00866	123.98318
73.9	0.03019	-0.01028	123.98339
74	0.02724	-0.01019	123.98359
74.1	0.02599	-0.00761	123.9838
74.2	0.02518	-0.00763	123.98402
74.3	0.0262	-0.00721	123.98423
74.4	0.02341	-0.01026	123.98444
74.5	0.03261	-0.00788	123.98464
74.6	0.03068	-0.00764	123.98485
74.7	0.02475	-0.00764	123.98506
74.8	0.02345	-0.00764	123.98526
74.9	0.0261	-0.00764	123.98547
75	0.02925	-0.00761	123.98569
75.1	0.02769	-0.00504	123.98589
75.2	0.02825	-0.0075	123.9861
75.3	0.02835	-0.00825	123.98631
75.4	0.03137	-0.01158	123.98652
75.5	0.02521	-0.01155	123.98672
75.6	0.02997	-0.01095	123.98693
75.7	0.02295	-0.01007	123.98714
75.8	0.02927	-0.01019	123.98735
75.9	0.02847	-0.00758	123.98755
76	0.02957	-0.01029	123.98775
76.1	0.0285	-0.0089	123.98797
76.2	0.02088	-0.00762	123.98819
76.3	0.02158	-0.00764	123.98839
76.4	0.02291	-0.0075	123.9886
76.5	0.02944	-0.00692	123.98881
76.6	0.03226	-0.00743	123.98901
76.7	0.02798	-0.00764	123.98922
76.8	0.02613	-0.00641	123.98944
76.9	0.0223	-0.00765	123.98965
77	0.02503	-0.00764	123.98985
77.1	0.03495	-0.00505	123.99006
77.2	0.02773	-0.00752	123.99026
77.3	0.03544	-0.00764	123.99048
77.4	0.02808	-0.00764	123.99068
77.5	0.02789	-0.00764	123.99088
77.6	0.02543	-0.00503	123.9911
77.7	0.02794	-0.00769	123.99131
77.8	0.03004	-0.00764	123.9915
77.9	0.02125	-0.00764	123.99173
78	0.02522	-0.00922	123.99192
78.1	0.02895	-0.01028	123.99213
78.2	0.02242	-0.00995	123.99235
78.3	0.03285	-0.00889	123.99255
78.4	0.03087	-0.00953	123.99276
78.5	0.02793	-0.00761	123.99297
78.6	0.02438	-0.00935	123.99319
78.7	0.02937	-0.01018	123.99339
78.8	0.02991	-0.00586	123.99361
78.9	0.03677	-0.00737	123.9938
79	0.02976	-0.00505	123.99402
79.1	0.02779	-0.0064	123.99422
79.2	0.03115	-0.00572	123.99443
79.3	0.0243	-0.00766	123.99464
79.4	0.02363	-0.00764	123.99486
79.5	0.03503	-0.00764	123.99506
79.6	0.02726	-0.00752	123.99527
79.7	0.02679	-0.00904	123.99548
79.8	0.03061	-0.01001	123.99568
79.9	0.02607	-0.00964	123.9959
80	0.02932	-0.00831	123.99609
80.1	0.02356	-0.00757	123.9963
80.2	0.02578	-0.00707	123.99651
80.3	0.02502	-0.00578	123.99672
80.4	0.02752	-0.00925	123.99692
80.5	0.02778	-0.00808	123.99713
80.6	0.0187	-0.00763	123.99735
80.7	0.0328	-0.00765	123.99756
80.8	0.03052	-0.0061	123.99776
80.9	0.02803	-0.00761	123.99797
81	0.03018	-0.00973	123.99818
81.1	0.02833	-0.01031	123.99839
81.2	0.02962	-0.01019	123.9986
81.3	0.01983	-0.00964	123.99881
81.4	0.03061	-0.00763	123.99902
81.5	0.02654	-0.00502	123.99922
81.6	0.02983	-0.00509	123.99944
81.7	0.02634	-0.00509	123.99964
81.8	0.02807	-0.00757	123.99985
81.9	0.03131	-0.00764	124.00007
82	0.03083	-0.00498	124.00027
82.1	0.02921	-0.00509	124.00048
82.2	0.02226	-0.00689	124.00069
82.3	0.02875	-0.00576	124.00089
82.4	0.03057	-0.00566	124.0011
82.5	0.02568	-0.00774	124.00131
82.6	0.0281	-0.00764	124.00151
82.7	0.02962	-0.00764	124.00172
82.8	0.02397	-0.00749	124.00193
82.9	0.02601	-0.00505	124.00214
83	0.0257	-0.00509	124.00233
83.1	0.03021	-0.00509	124.00255
83.2	0.02495	-0.00509	124.00277
83.3	0.02415	-0.00749	124.00298
83.4	0.02758	-0.0101	124.00318
83.5	0.01859	-0.0101	124.00339
83.6	0.02611	-0.01018	124.00359
83.7	0.02982	-0.00975	124.00381
83.8	0.02348	-0.00859	124.00401
83.9	0.03073	-0.00764	124.00421
84	0.02144	-0.00764	124.00443
84.1	0.03035	-0.00764	124.00464
84.2	0.02414	-0.00764	124.00484
84.3	0.0306	-0.00764	124.00506
84.4	0.0324	-0.00764	124.00526
84.5	0.02846	-0.01	124.00547
84.6	0.03232	-0.00759	124.00569
84.7	0.02239	-0.005	124.0059
84.8	0.02983	-0.00771	124.00611
84.9	0.03111	-0.00977	124.00631
85	0.01925	-0.01019	124.00652
85.1	0.0291	-0.00753	124.00673
85.2	0.02364	-0.00767	124.00694
85.3	0.02953	-0.00764	124.00713
85.4	0.02865	-0.00905	124.00735
85.5	0.02553	-0.01003	124.00755
85.6	0.02327	-0.01018	124.00776
85.7	0.02445	-0.00758	124.00797
85.8	0.03106	-0.00665	124.00819
85.9	0.02373	-0.00613	124.00839
86	0.02244	-0.00765	124.0086
86.1	0.01693	-0.00764	124.0088
86.2	0.02504	-0.0077	124.00901
86.3	0.03067	-0.00764	124.00922
86.4	0.01949	-0.00602	124.00942
86.5	0.02622	-0.00772	124.00964
86.6	0.03189	-0.00812	124.00986
86.7	0.02872	-0.00762	124.01006
86.8	0.0295	-0.00764	124.01026
86.9	0.02539	-0.00764	124.01048
87	0.02532	-0.00729	124.01068
87.1	0.03064	-0.00766	124.01088
87.2	0.03059	-0.00764	124.01109
87.3	0.02493	-0.00764	124.01131
87.4	0.02085	-0.00764	124.01152
87.5	0.03137	-0.00776	124.01173
87.6	0.03006	-0.00783	124.01192
87.7	0.02669	-0.00757	124.01215
87.8	0.02368	-0.00764	124.01235
87.9	0.03011	-0.00764	124.01255
88	0.03184	-0.00764	124.01276
88.1	0.02946	-0.00764	124.01297
88.2	0.02976	-0.00827	124.01318
88.3	0.01979	-0.01021	124.0134
88.4	0.03003	-0.00764	124.0136
88.5	0.03455	-0.01028	124.01379
88.6	0.02566	-0.01018	124.01402
88.7	0.03328	-0.01019	124.01422
88.8	0.02494	-0.00766	124.01443
88.9	0.0271	-0.00764	124.01464
89	0.02779	-0.00944	124.01485
89.1	0.02469	-0.00762	124.01506
89.2	0.02822	-0.00644	124.01527
89.3	0.02667	-0.0068	124.01548
89.4	0.02967	-0.00764	124.01568
89.5	0.02853	-0.00794	124.01589
89.6	0.0278	-0.00764	124.0161
89.7	0.02654	-0.00764	124.0163
89.8	0.02684	-0.00766	124.01651
89.9	0.02923	-0.00764	124.01672
90	0.02988	-0.00764	124.01692
90.1	0.03241	-0.01029	124.01714
90.2	0.02619	-0.01019	124.01733
90.3	0.0282	-0.00802	124.01756
90.4	0.02725	-0.00811	124.01777
90.5	0.03073	-0.00764	124.01797
90.6	0.03046	-0.00926	124.01818
90.7	0.02753	-0.00756	124.01839
90.8	0.0232	-0.00764	124.01859
90.9	0.02099	-0.00797	124.0188
91	0.02772	-0.01011	124.01902
91.1	0.02353	-0.01038	124.01923
91.2	0.03084	-0.01276	124.01943
91.3	0.02599	-0.01133	124.01964
91.4	0.02855	-0.01282	124.01984
91.5	0.02997	-0.01254	124.02007
91.6	0.03062	-0.01014	124.02027
91.7	0.02503	-0.00846	124.02048
91.8	0.02421	-0.00764	124.02069
91.9	0.03041	-0.00616	124.0209
92	0.02363	-0.00765	124.0211
92.1	0.03194	-0.00724	124.02131
92.2	0.0256	-0.00764	124.02151
92.3	0.02942	-0.00764	124.02172
92.4	0.02747	-0.01157	124.02193
92.5	0.02827	-0.01012	124.02213
92.6	0.03007	-0.01016	124.02234
92.7	0.02238	-0.01011	124.02255
92.8	0.02176	-0.00915	124.02277
92.9	0.02839	-0.00764	124.02297
93	0.03192	-0.00764	124.02319
93.1	0.03151	-0.01023	124.02338
93.2	0.02648	-0.01018	124.0236
93.3	0.02705	-0.01019	124.0238
93.4	0.02798	-0.01019	124.02402
93.5	0.03057	-0.01187	124.02423
93.6	0.02413	-0.00796	124.02444
93.7	0.0252	-0.01038	124.02464
93.8	0.02679	-0.01268	124.02486
93.9	0.0334	-0.01424	124.02505
94	0.02607	-0.01022	124.02528
94.1	0.03367	-0.01019	124.02549
94.2	0.02539	-0.01019	124.02569
94.3	0.03007	-0.01197	124.02589
94.4	0.02365	-0.01144	124.02611
94.5	0.02948	-0.00924	124.02631
94.6	0.03029	-0.01017	124.02651
94.7	0.0247	-0.01018	124.02673
94.8	0.0338	-0.01014	124.02692
94.9	0.02572	-0.00755	124.02714
95	0.02607	-0.01027	124.02734
95.1	0.03103	-0.01018	124.02755
95.2	0.02844	-0.01238	124.02776
95.3	0.02806	-0.01273	124.02798
95.4	0.0253	-0.01273	124.02817
95.5	0.03511	-0.01324	124.02839
95.6	0.02554	-0.01156	124.0286
95.7	0.03056	-0.00921	124.0288
95.8	0.03354	-0.00867	124.02901
95.9	0.02952	-0.01003	124.02922
96	0.03347	-0.01268	124.02943
96.1	0.02211	-0.0109	124.02964
96.2	0.02648	-0.01014	124.02985
96.3	0.03103	-0.01019	124.03006
96.4	0.02857	-0.00922	124.03027
96.5	0.03212	-0.00888	124.03047
96.6	0.03012	-0.00766	124.03069
96.7	0.02984	-0.00764	124.03089
96.8	0.02798	-0.01021	124.0311
96.9	0.02783	-0.01019	124.03131
97	0.03045	-0.00881	124.03152
97.1	0.02692	-0.01029	124.03172
97.2	0.03199	-0.01034	124.03192
97.3	0.02574	-0.01015	124.03213
97.4	0.02272	-0.01021	124.03235
97.5	0.03161	-0.01278	124.03255
97.6	0.02905	-0.01273	124.03278
97.7	0.03134	-0.01273	124.03297
97.8	0.02463	-0.01273	124.03317
97.9	0.02382	-0.01262	124.03339
98	0.0287	-0.01016	124.0336
98.1	0.02885	-0.01164	124.03381
98.2	0.02416	-0.01012	124.03402
98.3	0.01848	-0.00871	124.03423
98.4	0.0274	-0.00914	124.03442
98.5	0.02523	-0.01019	124.03464
98.6	0.02345	-0.01278	124.03484
98.7	0.03312	-0.01273	124.03506
98.8	0.02141	-0.01012	124.03527
98.9	0.03523	-0.01019	124.03548
99	0.02557	-0.01019	124.03568
99.1	0.02501	-0.01063	124.03589
99.2	0.02256	-0.01018	124.03609
99.3	0.02679	-0.00761	124.03631
99.4	0.02647	-0.01096	124.03651
99.5	0.02633	-0.00939	124.03671
99.6	0.02947	-0.01019	124.03693
99.7	0.02738	-0.01359	124.03713
99.8	0.02042	-0.01283	124.03734
99.9	0.02457	-0.01008	124.03756
100	0.02479	-0.01011	124.03777
100.1	0.02503	-0.01018	124.03797
100.2	0.02547	-0.01019	124.03818
100.3	0.0266	-0.01019	124.03838
100.4	0.02154	-0.01095	124.0386
100.5	0.02664	-0.01018	124.03882
100.6	0.03088	-0.01019	124.03902
100.7	0.02967	-0.00755	124.03922
100.8	0.02608	-0.0093	124.03944
100.9	0.02783	-0.00806	124.03964
101	0.023	-0.00811	124.03984
101.1	0.02887	-0.00764	124.04005
101.2	0.02457	-0.0081	124.04028
101.3	0.02509	-0.00758	124.04047
101.4	0.01539	-0.00932	124.04069
101.5	0.03154	-0.0085	124.04089
101.6	0.02979	-0.01023	124.0411
101.7	0.02274	-0.01001	124.04131
101.8	0.02702	-0.01149	124.04151
101.9	0.03077	-0.0124	124.04172
102	0.02264	-0.01016	124.04193
102.1	0.03196	-0.01019	124.04213
102.2	0.01862	-0.0079	124.04234
102.3	0.03101	-0.00765	124.04255
102.4	0.02735	-0.01022	124.04277
102.5	0.02539	-0.01237	124.04298
102.6	0.03383	-0.01017	124.04318
102.7	0.02339	-0.01007	124.04339
102.8	0.02284	-0.00816	124.0436
102.9	0.0266	-0.00764	124.0438
103	0.02477	-0.00764	124.04401
103.1	0.02759	-0.00764	124.04422
103.2	0.02564	-0.0103	124.04443
103.3	0.03153	-0.01019	124.04464
103.4	0.02709	-0.00969	124.04485
103.5	0.03046	-0.0095	124.04506
103.6	0.03045	-0.01018	124.04527
103.7	0.0196	-0.01019	124.04547
103.8	0.02881	-0.00842	124.04569
103.9	0.02961	-0.01024	124.04589
104	0.02982	-0.01206	124.0461
104.1	0.02297	-0.01026	124.04631
104.2	0.03088	-0.01019	124.04652
104.3	0.03147	-0.00755	124.04671
104.4	0.02427	-0.01028	124.04693
104.5	0.02533	-0.01101	124.04713
104.6	0.03166	-0.01274	124.04735
104.7	0.027	-0.01065	124.04755
104.8	0.03423	-0.01019	124.04776
104.9	0.02943	-0.01019	124.04798
105	0.03039	-0.00835	124.04819
105.1	0.03122	-0.00777	124.04839
105.2	0.03127	-0.00575	124.0486
105.3	0.02846	-0.00771	124.04881
105.4	0.02363	-0.00851	124.04902
105.5	0.02637	-0.00762	124.04923
105.6	0.03001	-0.00968	124.04944
105.7	0.03535	-0.01018	124.04965
105.8	0.02632	-0.01283	124.04985
105.9	0.02493	-0.01168	124.05006
106	0.02861	-0.01018	124.05027
106.1	0.0239	-0.01019	124.05048
106.2	0.03136	-0.01015	124.05067
106.3	0.02269	-0.01013	124.05089
106.4	0.02892	-0.0102	124.05111
106.5	0.02882	-0.01019	124.05132
106.6	0.028	-0.01096	124.05151
106.7	0.03001	-0.01274	124.05171
106.8	0.02949	-0.01273	124.05193
106.9	0.02408	-0.011	124.05213
107	0.03154	-0.01026	124.05235
107.1	0.02579	-0.0113	124.05255
107.2	0.02838	-0.01278	124.05276
107.3	0.026	-0.01188	124.05297
107.4	0.02847	-0.01018	124.05317
107.5	0.02494	-0.01028	124.0534
107.6	0.025	-0.00979	124.0536
107.7	0.03252	-0.00844	124.0538
107.8	0.02311	-0.01202	124.05402
107.9	0.03235	-0.01014	124.05422
108	0.02678	-0.01185	124.05443
108.1	0.02828	-0.0104	124.05463
108.2	0.03073	-0.01319	124.05486
108.3	0.01924	-0.01125	124.05507
108.4	0.02866	-0.01137	124.05527
108.5	0.02178	-0.0118	124.05547
108.6	0.02847	-0.01276	124.05569
108.7	0.03407	-0.01071	124.05589
108.8	0.02792	-0.01184	124.05609
108.9	0.02723	-0.01283	124.0563
109	0.0284	-0.01013	124.05651
109.1	0.0275	-0.01019	124.05672
109.2	0.02177	-0.01054	124.05692
109.3	0.02426	-0.01019	124.05713
109.4	0.02534	-0.01019	124.05733
109.5	0.02821	-0.01121	124.05756
109.6	0.02713	-0.01283	124.05776
109.7	0.03178	-0.01337	124.05797
109.8	0.02737	-0.01302	124.05818
109.9	0.03541	-0.01274	124.05839
110	0.02037	-0.01273	124.05859
110.1	0.03029	-0.01402	124.05882
110.2	0.02378	-0.01273	124.05902
110.3	0.02768	-0.01351	124.05922
110.4	0.02683	-0.01273	124.05943
110.5	0.02778	-0.01164	124.05964
110.6	0.03182	-0.01018	124.05984
110.7	0.0278	-0.01019	124.06007
110.8	0.03199	-0.01019	124.06027
110.9	0.02989	-0.01138	124.06048
111	0.02461	-0.01131	124.06069
111.1	0.02721	-0.01274	124.06089
111.2	0.02285	-0.01106	124.0611
111.3	0.02646	-0.01019	124.06131
111.4	0.02587	-0.01238	124.06152
111.5	0.02441	-0.01163	124.06172
111.6	0.02503	-0.01015	124.06193
111.7	0.02362	-0.00992	124.06213
111.8	0.02553	-0.01281	124.06235
111.9	0.02827	-0.01273	124.06255
112	0.02504	-0.01273	124.06275
112.1	0.02587	-0.01273	124.06297
112.2	0.02967	-0.01273	124.06318
112.3	0.03166	-0.01299	124.06339
112.4	0.01631	-0.01181	124.0636
112.5	0.02725	-0.01018	124.0638
112.6	0.02739	-0.01019	124.06402
112.7	0.0277	-0.01122	124.06423
112.8	0.02965	-0.01052	124.06444
112.9	0.02596	-0.01133	124.06464
113	0.03304	-0.00845	124.06485
113.1	0.02039	-0.00993	124.06506
113.2	0.02494	-0.01032	124.06528
113.3	0.02938	-0.01212	124.06548
113.4	0.02245	-0.01401	124.06569
113.5	0.0364	-0.01279	124.0659
113.6	0.02246	-0.01274	124.06609
113.7	0.01995	-0.01023	124.06629
113.8	0.02785	-0.01243	124.06651
113.9	0.02634	-0.01058	124.06671
114	0.0283	-0.01282	124.06692
114.1	0.02561	-0.01273	124.06714
114.2	0.03119	-0.01273	124.06734
114.3	0.02475	-0.01026	124.06755
114.4	0.02954	-0.00968	124.06776
114.5	0.02898	-0.01019	124.06798
114.6	0.02861	-0.0116	124.06818
114.7	0.02667	-0.01281	124.0684
114.8	0.02314	-0.01273	124.0686
114.9	0.02678	-0.01273	124.0688
115	0.03459	-0.00972	124.06902
115.1	0.03137	-0.01027	124.06924
115.2	0.02599	-0.00838	124.06944
115.3	0.02692	-0.01025	124.06965
115.4	0.02748	-0.01038	124.06985
115.5	0.02474	-0.01275	124.07006
115.6	0.02469	-0.01273	124.07027
115.7	0.03218	-0.01273	124.07047
115.8	0.02219	-0.01353	124.07068
115.9	0.03167	-0.01273	124.07089
116	0.03234	-0.01126	124.07109
116.1	0.02998	-0.01281	124.0713
116.2	0.03107	-0.01273	124.07151
116.3	0.02312	-0.01008	124.07172
116.4	0.03	-0.01018	124.07191
116.5	0.02317	-0.01019	124.07213
116.6	0.03101	-0.01125	124.07235
116.7	0.03369	-0.01259	124.07256
116.8	0.01887	-0.01038	124.07276
116.9	0.02935	-0.00988	124.07297
117	0.02623	-0.00821	124.07319
117.1	0.02686	-0.0073	124.07339
117.2	0.03282	-0.0075	124.0736
117.3	0.02812	-0.00874	124.07381
117.4	0.03059	-0.01028	124.07401
117.5	0.02467	-0.01276	124.07422
117.6	0.03298	-0.01605	124.07443
117.7	0.02905	-0.01523	124.07465
117.8	0.02606	-0.0127	124.07485
117.9	0.02641	-0.01273	124.07507
118	0.03268	-0.01373	124.07527
118.1	0.02268	-0.01528	124.07548
118.2	0.03177	-0.01524	124.07568
118.3	0.02356	-0.0129	124.07589
118.4	0.03234	-0.01266	124.0761
118.5	0.02216	-0.01273	124.07631
118.6	0.03259	-0.01273	124.07651
118.7	0.02872	-0.01273	124.07671
118.8	0.02362	-0.01273	124.07693
118.9	0.02587	-0.01273	124.07713
119	0.02719	-0.0101	124.07733
119.1	0.02847	-0.01019	124.07756
119.2	0.02226	-0.00891	124.07777
119.3	0.03113	-0.01025	124.07796
119.4	0.02454	-0.01021	124.07818
119.5	0.02597	-0.01017	124.07838
119.6	0.02734	-0.01131	124.07861
119.7	0.03178	-0.01276	124.07881
119.8	0.02731	-0.01273	124.07902
119.9	0.02582	-0.0101	124.07922
120	0.02484	-0.01018	124.07944
120.1	0.03116	-0.01267	124.07964
120.2	0.02473	-0.01273	124.07985
120.3	0.0221	-0.01273	124.08007
120.4	0.02587	-0.01337	124.08027
120.5	0.02478	-0.01275	124.08048
120.6	0.0257	-0.01274	124.08069
120.7	0.02795	-0.01273	124.08089
120.8	0.02996	-0.0152	124.0811
120.9	0.03058	-0.01278	124.08131
121	0.02834	-0.01298	124.0815
121.1	0.02122	-0.01527	124.08173
121.2	0.02324	-0.01264	124.08192
121.3	0.03662	-0.01532	124.08213
121.4	0.02422	-0.01528	124.08234
121.5	0.03389	-0.01274	124.08256
121.6	0.0265	-0.01278	124.08276
121.7	0.02756	-0.01273	124.08298
121.8	0.02921	-0.01273	124.08318
121.9	0.02628	-0.01277	124.08338
122	0.02796	-0.0136	124.0836
122.1	0.02413	-0.01274	124.0838
122.2	0.02232	-0.01278	124.08401
122.3	0.027	-0.01253	124.08423
122.4	0.0244	-0.0117	124.08443
122.5	0.03452	-0.01235	124.08464
122.6	0.02443	-0.01022	124.08485
122.7	0.03268	-0.01277	124.08505
122.8	0.02843	-0.01273	124.08527
122.9	0.0318	-0.01273	124.08547
123	0.02536	-0.01413	124.08569
123.1	0.028	-0.01376	124.0859
123.2	0.0311	-0.01273	124.08611
123.3	0.02528	-0.01314	124.0863
123.4	0.02356	-0.01521	124.08651
123.5	0.0355	-0.01277	124.08672
123.6	0.02539	-0.01273	124.08691
123.7	0.03436	-0.01273	124.08714
123.8	0.02178	-0.01259	124.08734
123.9	0.02623	-0.01279	124.08755
124	0.02389	-0.01207	124.08776
124.1	0.02559	-0.01274	124.08797
124.2	0.02787	-0.01273	124.08818
124.3	0.02966	-0.01434	124.08839
124.4	0.03064	-0.0138	124.0886
124.5	0.02568	-0.01501	124.08881
124.6	0.02653	-0.01537	124.08901
124.7	0.02568	-0.01546	124.08922
124.8	0.0203	-0.01481	124.08944
124.9	0.03147	-0.01339	124.08965
125	0.0261	-0.01159	124.08985
125.1	0.03133	-0.00754	124.09006
125.2	0.03201	-0.00989	124.09027
125.3	0.0266	-0.01136	124.09047
125.4	0.02686	-0.01275	124.09068
125.5	0.01942	-0.01534	124.0909
125.6	0.02201	-0.01528	124.09109
125.7	0.02072	-0.01446	124.0913
125.8	0.03252	-0.0153	124.09151
125.9	0.02832	-0.01275	124.09171
126	0.02495	-0.01487	124.09193
126.1	0.03188	-0.01291	124.09214
126.2	0.02383	-0.01296	124.09235
126.3	0.03251	-0.01273	124.09256
126.4	0.02858	-0.01374	124.09276
126.5	0.02824	-0.01273	124.09296
126.6	0.02661	-0.01273	124.09318
126.7	0.02782	-0.01273	124.0934
126.8	0.03055	-0.01009	124.09358
126.9	0.02307	-0.01083	124.09381
127	0.02121	-0.01099	124.09402
127.1	0.02974	-0.01275	124.09422
127.2	0.0265	-0.0106	124.09443
127.3	0.03177	-0.01019	124.09464
127.4	0.03413	-0.01015	124.09486
127.5	0.02829	-0.01019	124.09506
127.6	0.0229	-0.01019	124.09527
127.7	0.02496	-0.01019	124.09547
127.8	0.03893	-0.01019	124.09569
127.9	0.02473	-0.01019	124.09589
128	0.03032	-0.01214	124.09609
128.10001	0.02724	-0.01273	124.09631
128.2	0.03004	-0.01277	124.09651
128.3	0.03003	-0.01433	124.09671
128.39999	0.02747	-0.01203	124.09692
128.5	0.02941	-0.01275	124.09713
128.60001	0.03315	-0.01358	124.09735
128.7	0.02584	-0.0103	124.09756
128.8	0.02485	-0.0118	124.09776
128.89999	0.02384	-0.01206	124.09798
129	0.02565	-0.01163	124.09818
129.10001	0.01969	-0.01276	124.09838
129.2	0.02556	-0.01305	124.09859
129.3	0.0261	-0.01266	124.09882
129.39999	0.03055	-0.01274	124.09901
129.5	0.0259	-0.01013	124.09923
129.60001	0.03273	-0.01283	124.09943
129.7	0.02377	-0.01311	124.09964
129.8	0.02924	-0.01276	124.09986
129.89999	0.03096	-0.01274	124.10007
130	0.02825	-0.01068	124.10027
130.10001	0.0269	-0.00758	124.10048
130.2	0.02585	-0.00827	124.10069
130.3	0.02873	-0.0102	124.10089
130.39999	0.02329	-0.01019	124.1011
130.5	0.02572	-0.01199	124.1013
130.60001	0.02762	-0.01156	124.10151
130.7	0.03111	-0.01093	124.10172
130.8	0.02279	-0.01016	124.10193
130.89999	0.03082	-0.00753	124.10213
131	0.02637	-0.00987	124.10234
131.10001	0.02642	-0.0125	124.10256
131.2	0.02935	-0.01276	124.10277
131.3	0.02224	-0.01273	124.10297
131.39999	0.02493	-0.01284	124.10318
131.5	0.02442	-0.01283	124.10339
131.60001	0.02733	-0.01274	124.1036
131.7	0.03154	-0.01261	124.1038
131.8	0.02392	-0.01019	124.10402
131.89999	0.02989	-0.00972	124.10423
132	0.02351	-0.01284	124.10443
132.10001	0.03042	-0.01246	124.10464
132.2	0.03034	-0.01013	124.10485
132.3	0.02058	-0.01019	124.10506
132.39999	0.02915	-0.01008	124.10528
132.5	0.02747	-0.01019	124.10547
132.60001	0.03055	-0.0117	124.10569
132.7	0.02512	-0.01023	124.1059
132.8	0.0225	-0.00986	124.1061
132.89999	0.02464	-0.00963	124.10629
133	0.02315	-0.00966	124.10651
133.10001	0.03217	-0.00762	124.10671
133.2	0.02412	-0.01098	124.10691
133.3	0.03085	-0.01149	124.10714
133.39999	0.03151	-0.01251	124.10735
133.5	0.02482	-0.01538	124.10755
133.60001	0.03609	-0.01528	124.10776
133.7	0.02092	-0.01177	124.10798
133.8	0.02713	-0.01283	124.10818
133.89999	0.02477	-0.01273	124.10839
134	0.02374	-0.01058	124.1086
134.10001	0.02094	-0.00836	124.1088
134.2	0.02043	-0.00806	124.10902
134.3	0.03276	-0.01022	124.10923
134.39999	0.02875	-0.01019	124.10944
134.5	0.02822	-0.01012	124.10965
134.60001	0.0344	-0.00805	124.10985
134.7	0.02684	-0.00911	124.11006
134.8	0.03085	-0.00763	124.11027
134.89999	0.02426	-0.01027	124.11047
135	0.02983	-0.01048	124.11068
135.10001	0.03262	-0.01275	124.11089
135.2	0.02931	-0.01321	124.11109
135.3	0.0252	-0.01456	124.11131
135.39999	0.03216	-0.01271	124.1115
135.5	0.02736	-0.01273	124.11171
135.60001	0.03258	-0.01143	124.11192
135.7	0.0256	-0.01019	124.11214
135.8	0.02572	-0.01019	124.11234
135.89999	0.0202	-0.01019	124.11256
136	0.03253	-0.01113	124.11276
136.10001	0.03042	-0.01189	124.11297
136.2	0.03326	-0.01021	124.11319
136.3	0.02997	-0.01044	124.1134
136.39999	0.02116	-0.01063	124.1136
136.5	0.03019	-0.01275	124.11381
136.60001	0.02788	-0.01201	124.11401
136.7	0.02705	-0.01015	124.11422
136.8	0.03036	-0.01023	124.11443
136.89999	0.02867	-0.01022	124.11463
137	0.03011	-0.01031	124.11485
137.10001	0.02748	-0.01019	124.11507
137.2	0.02837	-0.01026	124.11527
137.3	0.0292	-0.01276	124.11547
137.39999	0.02848	-0.01018	124.11568
137.5	0.02909	-0.00933	124.11589
137.60001	0.02396	-0.01024	124.1161
137.7	0.03039	-0.0076	124.1163
137.8	0.02375	-0.01025	124.11651
137.89999	0.02939	-0.00975	124.11672
138	0.02898	-0.01019	124.11693
138.10001	0.03095	-0.01019	124.11714
138.2	0.02976	-0.01019	124.11736
138.3	0.03017	-0.01019	124.11756
138.39999	0.03164	-0.01284	124.11776
138.5	0.02926	-0.01273	124.11797
138.60001	0.0275	-0.01253	124.11819
138.7	0.02453	-0.01279	124.11839
138.8	0.02885	-0.01277	124.11859
138.89999	0.02518	-0.01536	124.11881
139	0.02507	-0.01528	124.11902
139.10001	0.02755	-0.0153	124.11922
139.2	0.02747	-0.01018	124.11943
139.3	0.02922	-0.01024	124.11964
139.39999	0.02666	-0.01019	124.11985
139.5	0.03114	-0.0102	124.12005
139.60001	0.03106	-0.01019	124.12025
139.7	0.03097	-0.00757	124.12048
139.8	0.02878	-0.01039	124.12069
139.89999	0.02816	-0.01064	124.12089
140	0.02559	-0.01279	124.1211
140.10001	0.02806	-0.01496	124.12129
140.2	0.02602	-0.01262	124.12151
140.3	0.02683	-0.01013	124.12172
140.39999	0.03041	-0.00876	124.12193
140.5	0.02127	-0.0094	124.12214
140.60001	0.03695	-0.0081	124.12235
140.7	0.02551	-0.00761	124.12254
140.8	0.02347	-0.01031	124.12277
140.89999	0.02774	-0.01179	124.12298
141	0.02541	-0.01276	124.12318
141.10001	0.02246	-0.01273	124.12339
141.2	0.02461	-0.01233	124.1236
141.3	0.02328	-0.01232	124.1238
141.39999	0.02661	-0.01362	124.12402
141.5	0.02342	-0.01486	124.12423
141.60001	0.02487	-0.01375	124.12444
141.7	0.02623	-0.01272	124.12465
141.8	0.02905	-0.01273	124.12485
141.89999	0.02283	-0.01137	124.12505
142	0.02633	-0.01011	124.12527
142.10001	0.0308	-0.01019	124.12547
142.2	0.02341	-0.01282	124.12569
142.3	0.03317	-0.01009	124.1259
142.39999	0.02801	-0.00763	124.12609
142.5	0.02795	-0.00764	124.1263
142.60001	0.03092	-0.00764	124.1265
142.7	0.01908	-0.00999	124.12672
142.8	0.02729	-0.01187	124.12693
142.89999	0.02579	-0.01275	124.12714
143	0.02415	-0.01063	124.12734
143.10001	0.02339	-0.01278	124.12756
143.2	0.02397	-0.01273	124.12777
143.3	0.03227	-0.01339	124.12798
143.39999	0.02038	-0.01483	124.12818
143.5	0.03044	-0.01528	124.1284
143.60001	0.02697	-0.01267	124.12859
143.7	0.03125	-0.01273	124.12881
143.8	0.02788	-0.01273	124.12901
143.89999	0.02281	-0.01293	124.12922
144	0.03191	-0.01491	124.12944
144.10001	0.02702	-0.01528	124.12965
144.2	0.0274	-0.01521	124.12985
144.3	0.02837	-0.0127	124.13007
144.39999	0.02961	-0.01221	124.13026
144.5	0.02461	-0.01196	124.13047
144.60001	0.02913	-0.01186	124.13068
144.7	0.02146	-0.01274	124.13089
144.8	0.0292	-0.01276	124.13109
144.89999	0.02739	-0.01202	124.1313
145	0.02786	-0.01266	124.13151
145.10001	0.02702	-0.01273	124.13171
145.2	0.02738	-0.01373	124.13192
145.3	0.03181	-0.01271	124.13214
145.39999	0.02541	-0.01056	124.13235
145.5	0.02426	-0.01201	124.13255
145.60001	0.02895	-0.01287	124.13276
145.7	0.02266	-0.01273	124.13297
145.8	0.03014	-0.01271	124.13318
145.89999	0.03565	-0.01033	124.13339
146	0.02736	-0.01019	124.1336
146.10001	0.02856	-0.0122	124.13381
146.2	0.02779	-0.01015	124.13402
146.3	0.02603	-0.01019	124.13422
146.39999	0.03006	-0.01284	124.13443
146.5	0.01901	-0.01273	124.13465
146.60001	0.03221	-0.01276	124.13486
146.7	0.02578	-0.01482	124.13506
146.8	0.02917	-0.01267	124.13527
146.89999	0.02653	-0.01109	124.13548
147	0.029	-0.01279	124.13568
147.10001	0.02394	-0.01273	124.13589
147.2	0.02646	-0.01273	124.1361
147.3	0.02836	-0.01536	124.13631
147.39999	0.02619	-0.01528	124.13651
147.5	0.02604	-0.01376	124.13672
147.60001	0.03213	-0.01274	124.13692
147.7	0.02085	-0.01279	124.13713
147.8	0.02939	-0.01531	124.13734
147.89999	0.03507	-0.01416	124.13756
148	0.02663	-0.01031	124.13776
148.10001	0.03107	-0.01116	124.13797
148.2	0.01889	-0.01335	124.13818
148.3	0.03057	-0.01267	124.13838
148.39999	0.02479	-0.01473	124.13861
148.5	0.02664	-0.01436	124.13881
148.60001	0.02851	-0.01309	124.13902
148.7	0.02971	-0.01274	124.13923
148.8	0.03167	-0.01273	124.13943
148.89999	0.02303	-0.01272	124.13963
149	0.03127	-0.01274	124.13985
149.10001	0.0284	-0.01373	124.14007
149.2	0.0232	-0.0145	124.14027
149.3	0.02906	-0.01527	124.14048
149.39999	0.02926	-0.01463	124.14069
149.5	0.0284	-0.01504	124.1409
149.60001	0.0283	-0.01558	124.1411
149.7	0.02522	-0.01592	124.1413
149.8	0.02403	-0.01585	124.14152
149.89999	0.02403	-0.01359	124.14172
150	0.0305	-0.01315	124.14192
150.10001	0.02523	-0.0114	124.14214
150.2	0.03045	-0.01274	124.14234
150.3	0.02327	-0.01273	124.14256
150.39999	0.02392	-0.01128	124.14277
150.5	0.02795	-0.01282	124.14297
150.60001	0.02216	-0.01537	124.14318
150.7	0.02711	-0.01531	124.14339
150.8	0.03105	-0.01611	124.14359
150.89999	0.02428	-0.01528	124.1438
151	0.03572	-0.01299	124.14403
151.10001	0.02634	-0.01307	124.14423
151.2	0.02806	-0.01272	124.14443
151.3	0.02483	-0.01357	124.14465
151.39999	0.02872	-0.01273	124.14485
151.5	0.03107	-0.01273	124.14505
151.60001	0.02841	-0.01315	124.14528
151.7	0.02597	-0.01265	124.14547
151.8	0.02555	-0.01274	124.14568
151.89999	0.02371	-0.01363	124.14588
152	0.0304	-0.01296	124.14609
152.10001	0.03266	-0.01542	124.1463
152.2	0.02529	-0.01522	124.14651
152.3	0.02787	-0.01528	124.14671
152.39999	0.02292	-0.01528	124.14693
152.5	0.03204	-0.01529	124.14714
152.60001	0.02584	-0.01263	124.14734
152.7	0.02827	-0.01273	124.14755
152.8	0.02887	-0.01273	124.14776
152.89999	0.02907	-0.01258	124.14798
153	0.03062	-0.01263	124.14819
153.10001	0.02791	-0.01068	124.14839
153.2	0.03482	-0.01272	124.1486
153.3	0.02539	-0.0134	124.14881
153.39999	0.02775	-0.01409	124.14901
153.5	0.02953	-0.01533	124.14923
153.60001	0.02392	-0.01353	124.14944
153.7	0.03111	-0.0152	124.14964
153.8	0.02532	-0.01364	124.14985
153.89999	0.02183	-0.01117	124.15006
154	0.03091	-0.01275	124.15027
154.10001	0.03386	-0.01521	124.15047
154.2	0.03231	-0.01315	124.15068
154.3	0.02238	-0.01419	124.15089
154.39999	0.03311	-0.01273	124.15109
154.5	0.02538	-0.01297	124.1513
154.60001	0.02583	-0.01274	124.1515
154.7	0.02551	-0.01274	124.15171
154.8	0.02274	-0.01206	124.15194
154.89999	0.033	-0.01018	124.15214
155	0.02176	-0.01131	124.15234
155.10001	0.02634	-0.01517	124.15256
155.2	0.03292	-0.01528	124.15276
155.3	0.02682	-0.01523	124.15298
155.39999	0.02812	-0.01267	124.15318
155.5	0.02702	-0.01092	124.1534
155.60001	0.02953	-0.01019	124.1536
155.7	0.02242	-0.01019	124.15381
155.8	0.03171	-0.01019	124.15401
155.89999	0.03047	-0.01278	124.15423
156	0.03099	-0.01103	124.15443
156.10001	0.03033	-0.01111	124.15465
156.2	0.03233	-0.01019	124.15485
156.3	0.02728	-0.01281	124.15506
156.39999	0.024	-0.01427	124.15527
156.5	0.02853	-0.01271	124.15548
156.60001	0.02469	-0.01175	124.15569
156.7	0.03027	-0.01025	124.15588
156.8	0.02807	-0.01169	124.1561
156.89999	0.01726	-0.01029	124.1563
157	0.02162	-0.01279	124.15651
157.10001	0.02656	-0.01318	124.15672
157.2	0.02478	-0.01273	124.15694
157.3	0.02877	-0.01273	124.15714
157.39999	0.0223	-0.01273	124.15736
157.5	0.02846	-0.01273	124.15755
157.60001	0.02769	-0.01009	124.15776
157.7	0.02242	-0.01019	124.15797
157.8	0.03514	-0.00872	124.15819
157.89999	0.02166	-0.00895	124.15839
158	0.02855	-0.0102	124.15861
158.10001	0.02146	-0.01019	124.15881
158.2	0.03233	-0.01102	124.15902
158.3	0.02973	-0.01001	124.15923
158.39999	0.02671	-0.00962	124.15943
158.5	0.02617	-0.01146	124.15965
158.60001	0.02388	-0.01082	124.15984
158.7	0.02406	-0.01019	124.16005
158.8	0.02945	-0.01266	124.16026
158.89999	0.02639	-0.01183	124.16048
159	0.03067	-0.01011	124.16068
159.10001	0.02171	-0.00925	124.16088
159.2	0.02562	-0.00773	124.1611
159.3	0.0232	-0.00816	124.16131
159.39999	0.02926	-0.01025	124.16151
159.5	0.03375	-0.01081	124.16172
159.60001	0.02875	-0.01247	124.16193
159.7	0.02426	-0.01062	124.16214
159.8	0.02402	-0.01233	124.16235
159.89999	0.02907	-0.01016	124.16256
160	0.03321	-0.01019	124.16277
160.10001	0.02378	-0.01054	124.16297
160.2	0.03044	-0.01013	124.16318
160.3	0.02802	-0.01019	124.16339
160.39999	0.02299	-0.01019	124.1636
160.5	0.03573	-0.01057	124.1638
160.60001	0.0215	-0.01012	124.16401
160.7	0.02288	-0.01218	124.16423
160.8	0.0291	-0.01275	124.16443
160.89999	0.02751	-0.01273	124.16464
161	0.03142	-0.01273	124.16485
161.10001	0.02267	-0.01193	124.16505
161.2	0.02875	-0.01018	124.16526
161.3	0.02513	-0.01019	124.16548
161.39999	0.02968	-0.01019	124.16568
161.5	0.02666	-0.01257	124.16589
161.60001	0.02814	-0.01273	124.1661
161.7	0.02235	-0.01024	124.16631
161.8	0.02495	-0.01074	124.16652
161.89999	0.02647	-0.01108	124.16673
162	0.01664	-0.01275	124.16693
162.10001	0.033	-0.01472	124.16714
162.2	0.02656	-0.01047	124.16734
162.3	0.02057	-0.01019	124.16756
162.39999	0.03115	-0.01279	124.16777
162.5	0.03004	-0.01273	124.16798
162.60001	0.03386	-0.01294	124.16819
162.7	0.02591	-0.01186	124.16839
162.8	0.02829	-0.01275	124.16859
162.89999	0.03102	-0.01028	124.16881
163	0.02439	-0.00855	124.16901
163.10001	0.03187	-0.01023	124.16921
163.2	0.02628	-0.01037	124.16943
163.3	0.02319	-0.01154	124.16965
163.39999	0.02956	-0.01018	124.16985
163.5	0.02558	-0.01125	124.17006
163.60001	0.02511	-0.01274	124.17027
163.7	0.02593	-0.01273	124.17047
163.8	0.02296	-0.01273	124.17068
163.89999	0.02728	-0.01009	124.17088
164	0.02941	-0.01019	124.1711
164.10001	0.02898	-0.01225	124.1713
164.2	0.02742	-0.01015	124.17151
164.3	0.02809	-0.01019	124.17171
164.39999	0.02368	-0.01023	124.17194
164.5	0.03156	-0.01036	124.17214
164.60001	0.03137	-0.01019	124.17235
164.7	0.02744	-0.00801	124.17255
164.8	0.0259	-0.00755	124.17276
164.89999	0.02852	-0.01012	124.17297
165	0.02755	-0.01187	124.17317
165.10001	0.02862	-0.01014	124.17339
165.2	0.02848	-0.00853	124.17361
165.3	0.03181	-0.0101	124.17381
165.39999	0.02472	-0.00761	124.17401
165.5	0.03303	-0.00912	124.17422
165.60001	0.02658	-0.00762	124.17443
165.7	0.02257	-0.01029	124.17463
165.8	0.03241	-0.01246	124.17486
165.89999	0.02621	-0.01273	124.17506
166	0.03131	-0.01273	124.17527
166.10001	0.02493	-0.01273	124.17548
166.2	0.02757	-0.01289	124.17568
166.3	0.02989	-0.01162	124.17589
166.39999	0.02052	-0.01017	124.1761
166.5	0.03129	-0.01019	124.1763
166.60001	0.02351	-0.01019	124.17651
166.7	0.03235	-0.00817	124.17672
166.8	0.03661	-0.01003	124.17693
166.89999	0.03419	-0.01035	124.17713
167	0.02872	-0.01276	124.17735
167.10001	0.0251	-0.01293	124.17756
167.2	0.02467	-0.01259	124.17776
167.3	0.02277	-0.01273	124.17797
167.39999	0.02986	-0.01273	124.17818
167.5	0.0267	-0.01273	124.17839
167.60001	0.02248	-0.01014	124.1786
167.7	0.02855	-0.01023	124.17881
167.8	0.02259	-0.00823	124.17902
167.89999	0.0299	-0.01024	124.17923
168	0.02782	-0.01019	124.17943
168.10001	0.03421	-0.00753	124.17966
168.2	0.02286	-0.00888	124.17985
168.3	0.02384	-0.01004	124.18005
168.39999	0.02788	-0.01018	124.18027
168.5	0.02557	-0.01063	124.18048
168.60001	0.02664	-0.01144	124.18067
168.7	0.02457	-0.01018	124.18089
168.8	0.02701	-0.01006	124.1811
168.89999	0.02761	-0.01019	124.1813
169	0.02481	-0.01019	124.18152
169.10001	0.0299	-0.0102	124.18172
169.2	0.03026	-0.01019	124.18192
169.3	0.01926	-0.01019	124.18214
169.39999	0.03145	-0.01279	124.18234
169.5	0.0273	-0.01273	124.18256
169.60001	0.02168	-0.01273	124.18277
169.7	0.03203	-0.01155	124.18298
169.8	0.02293	-0.01165	124.18318
169.89999	0.02912	-0.01276	124.18339
170	0.02586	-0.01092	124.18361
170.10001	0.02747	-0.01019	124.18381
170.2	0.02915	-0.01083	124.18402
170.3	0.02682	-0.01018	124.18423
170.39999	0.03298	-0.01221	124.18444
170.5	0.02577	-0.01273	124.18465
170.60001	0.02781	-0.01273	124.18484
170.7	0.02604	-0.01273	124.18506
170.8	0.0296	-0.01009	124.18526
170.89999	0.02788	-0.01229	124.18547
171	0.02882	-0.0117	124.18568
171.10001	0.02566	-0.01008	124.18588
171.2	0.02696	-0.01101	124.18609
171.3	0.02518	-0.01019	124.1863
171.39999	0.02956	-0.01038	124.1865
171.5	0.02197	-0.01	124.18672
171.60001	0.02812	-0.01023	124.18694
171.7	0.02599	-0.01116	124.18713
171.8	0.03318	-0.01454	124.18734
171.89999	0.0338	-0.01269	124.18755
172	0.02566	-0.01345	124.18777
172.10001	0.02675	-0.01273	124.18797
172.2	0.02581	-0.01085	124.18819
172.3	0.02296	-0.01294	124.18839
172.39999	0.03118	-0.01292	124.1886
172.5	0.02886	-0.01466	124.1888
172.60001	0.03192	-0.01349	124.18901
172.7	0.02325	-0.0108	124.18923
172.8	0.03278	-0.01131	124.18944
172.89999	0.02466	-0.00915	124.18964
173	0.02824	-0.01027	124.18985
173.10001	0.02945	-0.00859	124.19006
173.2	0.02557	-0.00762	124.19026
173.3	0.03439	-0.00786	124.19048
173.39999	0.02555	-0.01024	124.19068
173.5	0.02265	-0.01019	124.19089
173.60001	0.02675	-0.01159	124.19109
173.7	0.02728	-0.01276	124.1913
173.8	0.02955	-0.01249	124.19151
173.89999	0.02117	-0.01277	124.19172
174	0.02993	-0.0144	124.19193
174.10001	0.02536	-0.01529	124.19214
174.2	0.02906	-0.01365	124.19235
174.3	0.02369	-0.01272	124.19255
174.39999	0.02792	-0.01085	124.19276
174.5	0.02718	-0.01017	124.19299
174.60001	0.02462	-0.01078	124.19319
174.7	0.0284	-0.01086	124.19339
174.8	0.02492	-0.01539	124.1936
174.89999	0.02373	-0.01264	124.19381
175	0.026	-0.01531	124.19402
175.10001	0.03131	-0.0151	124.19422
175.2	0.02787	-0.01527	124.19443
175.3	0.03015	-0.01528	124.19463
175.39999	0.02691	-0.01291	124.19485
175.5	0.03034	-0.01284	124.19505
175.60001	0.0229	-0.01307	124.19527
175.7	0.03327	-0.0127	124.19547
175.8	0.02454	-0.01305	124.19567
175.89999	0.02861	-0.01303	124.19589
176	0.03736	-0.01266	124.1961
176.10001	0.02724	-0.01273	124.1963
176.2	0.02997	-0.01273	124.19651
176.3	0.02825	-0.01239	124.19672
176.39999	0.03317	-0.01534	124.19692
176.5	0.02836	-0.01635	124.19715
176.60001	0.02517	-0.01525	124.19735
176.7	0.03167	-0.01523	124.19756
176.8	0.02912	-0.01536	124.19777
176.89999	0.02879	-0.01265	124.19798
177	0.03202	-0.01108	124.19817
177.10001	0.02695	-0.01014	124.1984
177.2	0.02734	-0.01019	124.19861
177.3	0.02994	-0.01019	124.19881
177.39999	0.02725	-0.01019	124.19902
177.5	0.02761	-0.01283	124.19923
177.60001	0.02629	-0.01113	124.19943
177.7	0.03038	-0.01017	124.19964
177.8	0.02874	-0.01217	124.19984
177.89999	0.03595	-0.01273	124.20005
178	0.02774	-0.01233	124.20027
178.10001	0.02463	-0.01439	124.20046
178.2	0.03024	-0.01541	124.20067
178.3	0.02796	-0.01786	124.20088
178.39999	0.02981	-0.02038	124.2011
178.5	0.03219	-0.02	124.2013
178.60001	0.03249	-0.01541	124.20152
178.7	0.0354	-0.01472	124.20172
178.8	0.03528	-0.01499	124.20193
178.89999	0.04406	-0.01038	124.20213
179	0.0383	-0.01106	124.20235
179.10001	0.04244	-0.01292	124.20257
179.2	0.04013	-0.01284	124.20277
179.3	0.03681	-0.01274	124.20297
179.39999	0.04293	-0.01286	124.20319
179.5	0.04183	-0.01287	124.20339
179.60001	0.04242	-0.01331	124.20359
179.7	0.04462	-0.01251	124.2038
179.8	0.04559	-0.01539	124.20403
179.89999	0.03885	-0.01571	124.20422
180	0.04238	-0.01539	124.20444
180.10001	0.04093	-0.01733	124.20464
180.2	0.04396	-0.01522	124.20485
180.3	0.0465	-0.0154	124.20506
180.39999	0.04308	-0.01528	124.20526
180.5	0.0434	-0.01517	124.20547
180.60001	0.04419	-0.01528	124.20568
180.7	0.04396	-0.01528	124.20588
180.8	0.04046	-0.01305	124.20609
180.89999	0.03694	-0.01284	124.2063
181	0.0483	-0.01274	124.20652
181.10001	0.04109	-0.01273	124.20672
181.2	0.0395	-0.01273	124.20693
181.3	0.03614	-0.01273	124.20714
181.39999	0.04324	-0.01273	124.20734
181.5	0.03665	-0.01273	124.20755
181.60001	0.0336	-0.01273	124.20777
181.7	0.03951	-0.01414	124.20798
181.8	0.04079	-0.01525	124.20818
181.89999	0.04283	-0.01267	124.20839
182	0.04422	-0.01273	124.2086
182.10001	0.04397	-0.01503	124.20881
182.2	0.03666	-0.01528	124.20901
182.3	0.04239	-0.01528	124.20924
182.39999	0.04461	-0.01528	124.20944
182.5	0.05334	-0.01528	124.20964
182.60001	0.05719	-0.01456	124.20985
182.7	0.04705	-0.01538	124.21006
182.8	0.05381	-0.01517	124.21027
182.89999	0.05359	-0.01258	124.21047
183	0.05749	-0.01241	124.21068
183.10001	0.06144	-0.01017	124.21088
183.2	0.0566	-0.0111	124.2111
183.3	0.0715	-0.01266	124.2113
183.39999	0.06319	-0.0153	124.21152
183.5	0.07445	-0.01528	124.21173
183.60001	0.07176	-0.0148	124.21194
183.7	0.07905	-0.01502	124.21214
183.8	0.08268	-0.01347	124.21235
183.89999	0.08283	-0.01457	124.21255
184	0.08674	-0.01291	124.21276
184.10001	0.09198	-0.01502	124.21297
184.2	0.09385	-0.01293	124.21319
184.3	0.09845	-0.01273	124.21339
184.39999	0.09935	-0.0109	124.2136
184.5	0.10489	-0.01276	124.21381
184.60001	0.11195	-0.0153	124.21401
184.7	0.11216	-0.01508	124.21423
184.8	0.12043	-0.01529	124.21444
184.89999	0.11723	-0.01265	124.21465
185	0.12042	-0.01274	124.21486
185.10001	0.12564	-0.01013	124.21507
185.2	0.12756	-0.01019	124.21527
185.3	0.13201	-0.01019	124.21548
185.39999	0.13893	-0.00777	124.21568
185.5	0.13263	-0.01021	124.2159
185.60001	0.13725	-0.01108	124.21609
185.7	0.15049	-0.01019	124.2163
185.8	0.15025	-0.00975	124.21651
185.89999	0.15238	-0.00977	124.21672
186	0.16004	-0.00826	124.21692
186.10001	0.16228	-0.00764	124.21715
186.2	0.16725	-0.00813	124.21735
186.3	0.16787	-0.00889	124.21755
186.39999	0.17499	-0.0084	124.21777
186.5	0.17748	-0.00782	124.21797
186.60001	0.17815	-0.00855	124.21818
186.7	0.1915	-0.01284	124.21838
186.8	0.19669	-0.01273	124.21861
186.89999	0.20353	-0.01273	124.21881
187	0.2081	-0.01238	124.21902
187.10001	0.2145	-0.01273	124.21922
187.2	0.22665	-0.0127	124.21943
187.3	0.2257	-0.01015	124.21964
187.39999	0.23755	-0.00956	124.21984
187.5	0.23887	-0.00761	124.22005
187.60001	0.25001	-0.00764	124.22028
187.7	0.25554	-0.00888	124.22047
187.8	0.26446	-0.00976	124.22067
187.89999	0.28401	-0.00759	124.22088
188	0.27925	-0.01022	124.22108
188.10001	0.28607	-0.01072	124.2213
188.2	0.2927	-0.01103	124.22151
188.3	0.30195	-0.01018	124.22172
188.39999	0.31182	-0.00754	124.22193
188.5	0.31317	-0.01024	124.22214
188.60001	0.32371	-0.01021	124.22234
188.7	0.33062	-0.01019	124.22255
188.8	0.33502	-0.01025	124.22277
188.89999	0.35133	-0.01184	124.22297
189	0.35439	-0.01013	124.22318
189.10001	0.36863	-0.01023	124.22339
189.2	0.37157	-0.01217	124.22361
189.3	0.38423	-0.01273	124.22382
189.39999	0.39192	-0.01014	124.22402
189.5	0.39153	-0.01051	124.22423
189.60001	0.40447	-0.00967	124.22444
189.7	0.41559	-0.01019	124.22464
189.8	0.42412	-0.01019	124.22485
189.89999	0.43052	-0.01019	124.22506
190	0.4355	-0.01017	124.22527
190.10001	0.44682	-0.01019	124.22546
190.2	0.45019	-0.01019	124.22568
190.3	0.47664	-0.01092	124.22588
190.39999	0.48576	-0.01043	124.22609
190.5	0.49069	-0.01019	124.2263
190.60001	0.50136	-0.01019	124.2265
190.7	0.51089	-0.01155	124.22673
190.8	0.53081	-0.01213	124.22693
190.89999	0.53579	-0.01017	124.22713
191	0.54615	-0.01013	124.22735
191.10001	0.56509	-0.01019	124.22755
191.2	0.57196	-0.01019	124.22777
191.3	0.58365	-0.01019	124.22798
191.39999	0.59807	-0.01025	124.22819
191.5	0.60094	-0.01019	124.22839
191.60001	0.62132	-0.01019	124.2286
191.7	0.6312	-0.00869	124.22881
191.8	0.64196	-0.00752	124.22903
191.89999	0.6538	-0.00771	124.22923
192	0.67034	-0.00979	124.22944
192.10001	0.6831	-0.01019	124.22964
192.2	0.69037	-0.00853	124.22986
192.3	0.70281	-0.0116	124.23006
192.39999	0.71417	-0.01023	124.23026
192.5	0.72826	-0.01277	124.23048
192.60001	0.73935	-0.01273	124.23068
192.7	0.7575	-0.01273	124.23088
192.8	0.76896	-0.01015	124.23109
192.89999	0.78061	-0.01019	124.2313
193	0.80191	-0.01019	124.23151
193.10001	0.80463	-0.01019	124.23171
193.2	0.81893	-0.00988	124.23193
193.3	0.84447	-0.00824	124.23214
193.39999	0.85191	-0.00764	124.23235
193.5	0.87312	-0.00993	124.23255
193.60001	0.87904	-0.01088	124.23277
193.7	0.90356	-0.01273	124.23299
193.8	0.91663	-0.01259	124.23318
193.89999	0.93285	-0.01072	124.2334
194	0.95502	-0.00753	124.2336
194.10001	0.96971	-0.00906	124.23381
194.2	0.99917	-0.01132	124.23402
194.3	1.01157	-0.01011	124.23422
194.39999	1.02908	-0.00896	124.23443
194.5	1.05947	-0.00771	124.23464
194.60001	1.07557	-0.00786	124.23484
194.7	1.10871	-0.00645	124.23506
194.8	1.12931	-0.00547	124.23528
194.89999	1.14804	-0.00768	124.23547
195	1.17712	-0.00764	124.23568
195.10001	1.20702	-0.00757	124.23589
195.2	1.23969	-0.00538	124.2361
195.3	1.27039	-0.00523	124.2363
195.39999	1.30064	-0.00869	124.23651
195.5	1.33234	-0.00762	124.23672
195.60001	1.36809	-0.00764	124.23692
195.7	1.40464	-0.00863	124.23714
195.8	1.42931	-0.00888	124.23735
195.89999	1.4686	-0.0058	124.23756
196	1.506	-0.0051	124.23776
196.10001	1.54577	-0.00612	124.23797
196.2	1.58378	-0.00744	124.23819
196.3	1.61918	-0.00648	124.2384
196.39999	1.65886	-0.00322	124.2386
196.5	1.70165	-0.00511	124.23881
196.60001	1.73516	-0.00891	124.23902
196.7	1.77389	-0.00927	124.23923
196.8	1.81842	-0.00763	124.23943
196.89999	1.86333	-0.00764	124.23964
197	1.90076	-0.00667	124.23985
197.10001	1.95096	-0.00639	124.24006
197.2	2.00047	-0.00568	124.24027
197.3	2.03987	-0.0051	124.24046
197.39999	2.08937	-0.00509	124.24068
197.5	2.1304	-0.0075	124.24089
197.60001	2.18706	-0.00749	124.24108
197.7	2.23389	-0.00681	124.24131
197.8	2.28652	-0.00763	124.24152
197.89999	2.34027	-0.00763	124.24171
198	2.39302	-0.00625	124.24193
198.10001	2.45365	-0.00431	124.24213
198.2	2.50207	-0.00509	124.24234
198.3	2.5659	-0.00741	124.24256
198.39999	2.61632	-0.00502	124.24277
198.5	2.68361	-0.00244	124.24297
198.60001	2.75307	-0.00266	124.24319
198.7	2.80735	-0.00253	124.24339
198.8	2.87394	-0.00265	124.24359
198.89999	2.94359	-0.00255	124.2438
199	2.99969	-0.00344	124.24402
199.10001	3.06488	-0.00253	124.24422
199.2	3.13552	-0.00255	124.24444
199.3	3.21079	-0.00255	124.24464
199.39999	3.2742	-0.00209	124.24485
199.5	3.34361	-0.00256	124.24506
199.60001	3.4138	-0.00349	124.24528
199.7	3.4785	-0.0025	124.24548
199.8	3.55551	0.00003	124.24567
199.89999	3.624	0.00039	124.24588
200	3.69395	-0.00001	124.24609
200.10001	3.77471	0	124.2463
200.2	3.84855	-0.00063	124.24651
200.3	3.92341	-0.00258	124.24673
200.39999	4.00659	-0.00008	124.24693
200.5	4.08442	0	124.24713
200.60001	4.16275	-0.00039	124.24734
200.7	4.23832	0	124.24755
200.8	4.3249	0.00216	124.24776
200.89999	4.40186	0.00254	124.24798
201	4.49012	0.00032	124.24818
201.10001	4.57377	0.00244	124.24839
201.2	4.65895	-0.00002	124.2486
201.3	4.7509	0	124.2488
201.39999	4.83274	0.00074	124.24901
201.5	4.9223	0.00264	124.24922
201.60001	5.01634	-0.00006	124.24944
201.7	5.10421	0	124.24964
201.8	5.19268	0	124.24986
201.89999	5.2896	-0.00006	124.25006
202	5.38677	0.00016	124.25026
202.10001	5.47186	0.00016	124.25047
202.2	5.56997	0.00258	124.25068
202.3	5.67248	0.00254	124.25089
202.39999	5.77443	0.00397	124.25109
202.5	5.86934	0.00251	124.2513
202.60001	5.96657	0.00255	124.25151
202.7	6.06831	0.00517	124.25173
202.8	6.17159	0.00604	124.25193
202.89999	6.27112	0.00765	124.25213
203	6.37484	0.00769	124.25235
203.10001	6.47641	0.00536	124.25256
203.2	6.58178	0.00528	124.25276
203.3	6.68148	0.00774	124.25297
203.39999	6.79794	0.00758	124.25319
203.5	6.89828	0.00764	124.2534
203.60001	7.00442	0.00764	124.2536
203.7	7.11915	0.00764	124.25381
203.8	7.23314	0.00764	124.25402
203.89999	7.34262	0.00762	124.25422
204	7.44921	0.00498	124.25443
204.10001	7.56128	0.00773	124.25464
204.2	7.67082	0.0095	124.25485
204.3	7.78376	0.00891	124.25506
204.39999	7.89493	0.00761	124.25527
204.5	8.01895	0.00764	124.25548
204.60001	8.11764	0.00764	124.25568
204.7	8.24284	0.00842	124.25589
204.8	8.36018	0.00768	124.2561
204.89999	8.47735	0.00875	124.2563
205	8.58941	0.01046	124.25651
205.10001	8.71727	0.01249	124.25671
205.2	8.84422	0.01274	124.25693
205.3	8.95254	0.01279	124.25713
205.39999	9.07993	0.01273	124.25735
205.5	9.2049	0.0101	124.25756
205.60001	9.32758	0.00982	124.25777
205.7	9.45145	0.0102	124.25797
205.8	9.56923	0.0128	124.25818
205.89999	9.69867	0.01273	124.2584
206	9.81655	0.01273	124.25859
206.10001	9.95473	0.01273	124.25881
206.2	10.08209	0.01273	124.25902
206.3	10.20586	0.01273	124.25922
206.39999	10.32936	0.0106	124.25944
206.5	10.45368	0.01275	124.25964
206.60001	10.58257	0.01495	124.25984
206.7	10.71272	0.01279	124.26007
206.8	10.83699	0.01419	124.26028
206.89999	10.95755	0.01376	124.26046
207	11.09416	0.01562	124.26067
207.10001	11.22827	0.01784	124.26088
207.2	11.35657	0.01523	124.2611
207.3	11.48462	0.01528	124.26131
207.39999	11.62072	0.01565	124.26151
207.5	11.74873	0.01721	124.26172
207.60001	11.87687	0.01521	124.26193
207.7	12.01644	0.0179	124.26213
207.8	12.15178	0.0168	124.26235
207.89999	12.28567	0.01591	124.26257
208	12.41574	0.01784	124.26276
208.10001	12.55325	0.01525	124.26297
208.2	12.68826	0.01528	124.26318
208.3	12.8265	0.01324	124.26339
208.39999	12.96309	0.01531	124.2636
208.5	13.09422	0.01528	124.26382
208.60001	13.23113	0.0176	124.26402
208.7	13.3648	0.01782	124.26423
208.8	13.5101	0.01856	124.26443
208.89999	13.63857	0.02006	124.26464
209	13.77558	0.01851	124.26485
209.10001	13.92847	0.02193	124.26505
209.2	14.06086	0.02285	124.26526
209.3	14.20289	0.02295	124.26547
209.39999	14.34128	0.02027	124.26568
209.5	14.4827	0.02041	124.26588
209.60001	14.62491	0.02037	124.26609
209.7	14.76101	0.02071	124.2663
209.8	14.90888	0.0205	124.2665
209.89999	15.05471	0.02299	124.26672
210	15.20165	0.02533	124.26693
210.10001	15.34719	0.02538	124.26714
210.2	15.49602	0.0241	124.26735
210.3	15.6398	0.02336	124.26756
210.39999	15.78479	0.02553	124.26777
210.5	15.93818	0.02341	124.26798
210.60001	16.08327	0.02292	124.26818
210.7	16.23069	0.02352	124.26839
210.8	16.38628	0.02548	124.26862
210.89999	16.52801	0.02299	124.26881
211	16.68316	0.02292	124.26902
211.10001	16.8193	0.02555	124.26922
211.2	16.96742	0.02547	124.26942
211.3	17.11725	0.02547	124.26965
211.39999	17.26472	0.02547	124.26985
211.5	17.41941	0.02338	124.27006
211.60001	17.56183	0.02373	124.27027
211.7	17.71286	0.0255	124.27048
211.8	17.87045	0.02547	124.27068
211.89999	18.01833	0.02547	124.27089
212	18.17319	0.02547	124.2711
212.10001	18.32504	0.02794	124.2713
212.2	18.4846	0.02801	124.27151
212.3	18.63154	0.02672	124.27171
212.39999	18.79023	0.02728	124.27192
212.5	18.94483	0.02801	124.27214
212.60001	19.10875	0.03067	124.27235
212.7	19.26247	0.03267	124.27255
212.8	19.41413	0.03054	124.27277
212.89999	19.57261	0.03056	124.27296
213	19.72856	0.03056	124.27319
213.10001	19.88342	0.03197	124.2734
213.2	20.03741	0.03292	124.2736
213.3	20.20131	0.03101	124.2738
213.39999	20.35501	0.03241	124.27402
213.5	20.50936	0.03082	124.27422
213.60001	20.67389	0.03057	124.27442
213.7	20.82962	0.03319	124.27464
213.8	20.98579	0.03309	124.27486
213.89999	21.14878	0.03297	124.27506
214	21.29903	0.03311	124.27525
214.10001	21.4577	0.03088	124.27546
214.2	21.62452	0.03057	124.27568
214.3	21.78259	0.03319	124.27589
214.39999	21.94372	0.03342	124.27609
214.5	22.09629	0.03409	124.27631
214.60001	22.25642	0.03386	124.27651
214.7	22.43227	0.03753	124.27672
214.8	22.58486	0.03558	124.27692
214.89999	22.74611	0.03564	124.27713
215	22.91065	0.03565	124.27735
215.10001	23.08103	0.03565	124.27756
215.2	23.23659	0.03565	124.27776
215.3	23.39777	0.03626	124.27797
215.39999	23.56759	0.03674	124.27818
215.5	23.72261	0.03725	124.27838
215.60001	23.88864	0.0382	124.2786
215.7	24.05031	0.03821	124.27882
215.8	24.21662	0.03811	124.27902
215.89999	24.37944	0.0382	124.27922
216	24.53748	0.0364	124.27943
216.10001	24.71329	0.03824	124.27964
216.2	24.87729	0.03877	124.27985
216.3	25.04462	0.03974	124.28005
216.39999	25.20135	0.04082	124.28026
216.5	25.36858	0.04311	124.28046
216.60001	25.53639	0.04338	124.28068
216.7	25.69994	0.04336	124.28088
216.8	25.86966	0.04321	124.2811
216.89999	26.03904	0.0433	124.28131
217	26.19707	0.04226	124.28151
217.10001	26.36199	0.04071	124.28172
217.2	26.5278	0.04075	124.28193
217.3	26.69932	0.04254	124.28214
217.39999	26.86798	0.04138	124.28236
217.5	27.03047	0.04067	124.28256
217.60001	27.20308	0.04081	124.28277
217.7	27.37129	0.04075	124.28297
217.8	27.53312	0.04322	124.28318
217.89999	27.71297	0.04416	124.28339
218	27.87166	0.04326	124.2836
218.10001	28.04852	0.04578	124.2838
218.2	28.217	0.04844	124.28402
218.3	28.38117	0.04839	124.28423
218.39999	28.55626	0.04839	124.28444
218.5	28.72272	0.04852	124.28464
218.60001	28.89391	0.04833	124.28485
218.7	29.06182	0.04839	124.28506
218.8	29.2365	0.04783	124.28526
218.89999	29.39523	0.04758	124.28547
219	29.57033	0.04683	124.28568
219.10001	29.74289	0.05022	124.28588
219.2	29.91274	0.05092	124.2861
219.3	30.0858	0.05003	124.28629
219.39999	30.25713	0.04978	124.28651
219.5	30.43068	0.04833	124.28673
219.60001	30.60333	0.04923	124.28693
219.7	30.77618	0.05063	124.28713
219.8	30.94579	0.04994	124.28735
219.89999	31.12084	0.04832	124.28757
220	31.29769	0.04839	124.28777
220.10001	31.46489	0.04864	124.28798
220.2	31.63869	0.05103	124.28819
220.3	31.81605	0.05348	124.2884
220.39999	31.98796	0.05325	124.2886
220.5	32.16197	0.05084	124.2888
220.60001	32.32971	0.05104	124.28903
220.7	32.50364	0.05353	124.28922
220.8	32.6787	0.05348	124.28944
220.89999	32.8477	0.05348	124.28965
221	33.03106	0.05428	124.28986
221.10001	33.20411	0.05843	124.29005
221.2	33.3735	0.05584	124.29027
221.3	33.54572	0.05603	124.29047
221.39999	33.72923	0.05767	124.29068
221.5	33.89686	0.05855	124.29089
221.60001	34.07587	0.05857	124.29109
221.7	34.2509	0.05868	124.2913
221.8	34.43458	0.05857	124.29152
221.89999	34.60861	0.05857	124.29171
222	34.78377	0.05872	124.29193
222.10001	34.96027	0.06085	124.29214
222.2	35.14072	0.06112	124.29234
222.3	35.30844	0.06297	124.29255
222.39999	35.4885	0.06103	124.29276
222.5	35.6579	0.05817	124.29297
222.60001	35.84117	0.05862	124.29318
222.7	36.0146	0.06122	124.2934
222.8	36.19386	0.06377	124.2936
222.89999	36.37519	0.06218	124.29381
223	36.55199	0.06368	124.29401
223.10001	36.73142	0.06367	124.29422
223.2	36.90969	0.06364	124.29443
223.3	37.08515	0.06367	124.29464
223.39999	37.26982	0.06218	124.29485
223.5	37.44291	0.0635	124.29507
223.60001	37.61089	0.06588	124.29526
223.7	37.79379	0.06621	124.29547
223.8	37.97322	0.06621	124.29568
223.89999	38.16061	0.06362	124.29589
224	38.32546	0.06491	124.2961
224.10001	38.51615	0.06389	124.2963
224.2	38.67937	0.06609	124.29651
224.3	38.86758	0.0636	124.29671
224.39999	39.05146	0.06367	124.29693
224.5	39.2276	0.06367	124.29713
224.60001	39.41747	0.06521	124.29735
224.7	39.59337	0.06633	124.29756
224.8	39.76678	0.07075	124.29777
224.89999	39.94961	0.07	124.29797
225	40.12642	0.06876	124.29818
225.10001	40.30447	0.06876	124.29839
225.2	40.48468	0.06854	124.2986
225.3	40.6649	0.06876	124.29881
225.39999	40.84742	0.06693	124.29902
225.5	41.02586	0.06877	124.29922
225.60001	41.20141	0.06876	124.29943
225.7	41.39242	0.06876	124.29964
225.8	41.56234	0.07013	124.29984
225.89999	41.74202	0.07127	124.30006
226	41.91899	0.07088	124.30025
226.10001	42.10343	0.06963	124.30048
226.2	42.27978	0.0682	124.30067
226.3	42.46481	0.07107	124.30088
226.39999	42.63475	0.07206	124.30109
226.5	42.81807	0.06876	124.30129
226.60001	42.99929	0.07139	124.30151
226.7	43.1807	0.07368	124.30172
226.8	43.3725	0.07604	124.30193
226.89999	43.55128	0.07563	124.30213
227	43.7363	0.07646	124.30235
227.10001	43.91517	0.07641	124.30256
227.2	44.09335	0.07577	124.30276
227.3	44.28296	0.07385	124.30298
227.39999	44.45707	0.07386	124.30318
227.5	44.64614	0.07645	124.30338
227.60001	44.82565	0.0764	124.3036
227.7	45.00229	0.07629	124.3038
227.8	45.19786	0.07433	124.30402
227.89999	45.36852	0.07386	124.30423
228	45.55189	0.07125	124.30444
228.10001	45.72771	0.07396	124.30464
228.2	45.92063	0.07617	124.30485
228.3	46.10108	0.07699	124.30505
228.39999	46.27871	0.07895	124.30526
228.5	46.45526	0.07894	124.30547
228.60001	46.64297	0.07756	124.30567
228.7	46.82391	0.07639	124.30589
228.8	47.01403	0.07836	124.30609
228.89999	47.19583	0.07895	124.3063
229	47.38574	0.07767	124.30652
229.10001	47.5562	0.07696	124.30672
229.2	47.75066	0.07902	124.30693
229.3	47.93699	0.07992	124.30714
229.39999	48.11918	0.08136	124.30734
229.5	48.30732	0.08149	124.30756
229.60001	48.48338	0.08148	124.30778
229.7	48.67601	0.07929	124.30798
229.8	48.85351	0.07895	124.30818
229.89999	49.03761	0.08012	124.3084
230	49.22316	0.08141	124.3086
230.10001	49.40462	0.08164	124.3088
230.2	49.59509	0.08187	124.30903
230.3	49.77467	0.08158	124.30923
230.39999	49.95766	0.08285	124.30943
230.5	50.14928	0.08409	124.30965
230.60001	50.32725	0.08404	124.30985
230.7	50.5163	0.08428	124.31006
230.8	50.69839	0.084	124.31026
230.89999	50.88039	0.08399	124.31047
231	51.06594	0.08518	124.31068
231.10001	51.25166	0.08561	124.31089
231.2	51.44235	0.08645	124.31109
231.3	51.63148	0.08659	124.31129
231.39999	51.81139	0.08426	124.31151
231.5	52.00855	0.08874	124.31171
231.60001	52.18822	0.08911	124.31193
231.7	52.38066	0.08882	124.31214
231.8	52.55972	0.08777	124.31235
231.89999	52.75239	0.08658	124.31256
232	52.94399	0.08924	124.31276
232.10001	53.13852	0.08918	124.31298
232.2	53.31561	0.08942	124.31319
232.3	53.50364	0.08908	124.31339
232.39999	53.68813	0.08692	124.3136
232.5	53.87949	0.08917	124.31381
232.60001	54.07578	0.09108	124.31402
232.7	54.25947	0.08909	124.31422
232.8	54.44536	0.08914	124.31443
232.89999	54.6363	0.08954	124.31464
233	54.8244	0.09027	124.31484
233.10001	55.01268	0.09136	124.31505
233.2	55.19748	0.09172	124.31525
233.3	55.38339	0.09169	124.31546
233.39999	55.57505	0.09481	124.31567
233.5	55.76615	0.09385	124.31589
233.60001	55.96209	0.09167	124.31609
233.7	56.15088	0.09168	124.31631
233.8	56.34763	0.09168	124.31651
233.89999	56.53366	0.09156	124.31671
234	56.72697	0.0917	124.31694
234.10001	56.91833	0.09424	124.31715
234.2	57.11069	0.09261	124.31734
234.3	57.3008	0.09418	124.31756
234.39999	57.48792	0.09427	124.31776
234.5	57.68408	0.09436	124.31797
234.60001	57.87197	0.09686	124.31818
234.7	58.06268	0.09644	124.31838
234.8	58.25405	0.09678	124.3186
234.89999	58.45248	0.09678	124.31881
235	58.63924	0.098	124.31902
235.10001	58.82799	0.09727	124.31923
235.2	59.01993	0.0994	124.31944
235.3	59.2082	0.09879	124.31963
235.39999	59.40284	0.10006	124.31985
235.5	59.59805	0.09848	124.32005
235.60001	59.78616	0.09675	124.32026
235.7	59.97821	0.09934	124.32047
235.8	60.16749	0.09831	124.32067
235.89999	60.36116	0.0969	124.32088
236	60.55211	0.0993	124.32111
236.10001	60.75528	0.09675	124.3213
236.2	60.93957	0.09943	124.32151
236.3	61.13748	0.09939	124.32172
236.39999	61.33534	0.10125	124.32193
236.5	61.5302	0.10388	124.32214
236.60001	61.71678	0.10191	124.32236
236.7	61.91544	0.10297	124.32256
236.8	62.10574	0.10182	124.32276
236.89999	62.29462	0.10178	124.32298
237	62.48536	0.10187	124.32318
237.10001	62.68153	0.10186	124.32339
237.2	62.86421	0.10348	124.32359
237.3	63.0621	0.1018	124.3238
237.39999	63.25282	0.10422	124.32401
237.5	63.45231	0.10181	124.32423
237.60001	63.64563	0.10182	124.32443
237.7	63.83704	0.10363	124.32464
237.8	64.03388	0.10244	124.32485
237.89999	64.21964	0.10684	124.32506
238	64.41315	0.10436	124.32526
238.10001	64.60827	0.10442	124.32547
238.2	64.802	0.10442	124.32568
238.3	64.99175	0.10594	124.32589
238.39999	65.19638	0.10644	124.32609
238.5	65.39166	0.10702	124.32629
238.60001	65.57935	0.10704	124.32652
238.7	65.77681	0.10614	124.32672
238.8	65.9685	0.10697	124.32693
238.89999	66.17175	0.10762	124.32714
239	66.36418	0.10703	124.32735
239.10001	66.55736	0.10898	124.32755
239.2	66.76021	0.10785	124.32777
239.3	66.94312	0.10951	124.32798
239.39999	67.14383	0.10951	124.32818
239.5	67.33022	0.11116	124.32839
239.60001	67.5316	0.10944	124.3286
239.7	67.72378	0.10951	124.3288
239.8	67.91837	0.10951	124.32901
239.89999	68.12404	0.1069	124.32922
240	68.31313	0.10876	124.32944
240.10001	68.50425	0.10952	124.32965
240.2	68.70383	0.10951	124.32985
240.3	68.8909	0.10955	124.33006
240.39999	69.09097	0.11201	124.33027
240.5	69.27771	0.11087	124.33047
240.60001	69.48043	0.1119	124.33068
240.7	69.6656	0.10949	124.33089
240.8	69.86303	0.11058	124.33109
240.89999	70.05524	0.1099	124.33131
241	70.252	0.11081	124.3315
241.10001	70.46538	0.11078	124.33173
241.2	70.65501	0.11214	124.33194
241.3	70.85142	0.11466	124.33214
241.39999	71.05604	0.11464	124.33234
241.5	71.24341	0.11726	124.33256
241.60001	71.44012	0.11716	124.33276
241.7	71.64182	0.11733	124.33296
241.8	71.83533	0.11841	124.33319
241.89999	72.02727	0.11803	124.3334
242	72.22963	0.11971	124.3336
242.10001	72.42435	0.1197	124.33381
242.2	72.61884	0.11803	124.33401
242.3	72.82729	0.11714	124.33422
242.39999	73.01951	0.11977	124.33443
242.5	73.21548	0.1197	124.33463
242.60001	73.41112	0.11978	124.33484
242.7	73.60249	0.1197	124.33505
242.8	73.80288	0.12003	124.33527
242.89999	74.00472	0.12157	124.33547
243	74.19115	0.11968	124.33569
243.10001	74.39439	0.1197	124.33589
243.2	74.59294	0.12153	124.33609
243.3	74.79056	0.1223	124.3363
243.39999	74.99261	0.12181	124.33651
243.5	75.18793	0.12196	124.33672
243.60001	75.39529	0.12165	124.33694
243.7	75.58743	0.12224	124.33714
243.8	75.78592	0.1249	124.33736
243.89999	75.98862	0.12318	124.33755
244	76.19187	0.12482	124.33776
244.10001	76.3868	0.12479	124.33797
244.2	76.58558	0.12479	124.33818
244.3	76.78316	0.12479	124.33839
244.39999	76.98387	0.12479	124.33861
244.5	77.18848	0.12528	124.33881
244.60001	77.3766	0.12472	124.33902
244.7	77.57961	0.12479	124.33923
244.8	77.78011	0.12476	124.33943
244.89999	77.98031	0.12224	124.33964
245	78.17546	0.12449	124.33985
245.10001	78.38483	0.12703	124.34007
245.2	78.58216	0.12839	124.34026
245.3	78.78114	0.12733	124.34048
245.39999	78.9715	0.12469	124.34068
245.5	79.18106	0.12734	124.34087
245.60001	79.38187	0.12734	124.34109
245.7	79.58385	0.12734	124.34131
245.8	79.79976	0.12734	124.34151
245.89999	79.98698	0.12734	124.34172
246	80.20094	0.12734	124.34193
246.10001	80.39557	0.12734	124.34213
246.2	80.60904	0.12923	124.34235
246.3	80.80748	0.12988	124.34256
246.39999	81.00298	0.12856	124.34277
246.5	81.21728	0.12992	124.34298
246.60001	81.41322	0.12988	124.34318
246.7	81.61479	0.12946	124.34339
246.8	81.81993	0.12951	124.34361
246.89999	82.01781	0.12988	124.34381
247	82.22417	0.12988	124.34402
247.10001	82.42057	0.13126	124.34423
247.2	82.62239	0.13244	124.34444
247.3	82.82673	0.13243	124.34464
247.39999	83.02666	0.13002	124.34485
247.5	83.22768	0.12988	124.34505
247.60001	83.42706	0.13296	124.34527
247.7	83.63294	0.13237	124.34547
247.8	83.82992	0.13279	124.34567
247.89999	84.03584	0.13502	124.34589
248	84.23808	0.13505	124.34609
248.10001	84.44283	0.13757	124.34629
248.2	84.65244	0.13752	124.3465
248.3	84.86176	0.13649	124.34673
248.39999	85.06705	0.13579	124.34692
248.5	85.26175	0.13498	124.34714
248.60001	85.46467	0.13552	124.34734
248.7	85.67398	0.13496	124.34756
248.8	85.8698	0.13802	124.34777
248.89999	86.07947	0.13751	124.34798
249	86.28297	0.14001	124.34818
249.10001	86.48351	0.14007	124.3484
249.2	86.68491	0.14004	124.34859
249.3	86.89164	0.13776	124.3488
249.39999	87.10378	0.13753	124.34903
249.5	87.30225	0.13752	124.34923
249.60001	87.50878	0.13802	124.34943
249.7	87.70153	0.13979	124.34965
249.8	87.91493	0.13983	124.34985
249.89999	88.11593	0.14251	124.35005
250	88.31612	0.13999	124.35025
250.10001	88.52473	0.14007	124.35047
250.2	88.73082	0.14096	124.35069
250.3	88.94001	0.13742	124.35088
250.39999	89.14429	0.13938	124.35109
250.5	89.35728	0.14015	124.3513
250.60001	89.56265	0.14134	124.35151
250.7	89.76754	0.14006	124.35172
250.8	89.98216	0.14078	124.35194
250.89999	90.18708	0.13831	124.35214
251	90.38364	0.14012	124.35235
251.10001	90.60342	0.13909	124.35255
251.2	90.80302	0.14008	124.35276
251.3	91.01636	0.14264	124.35298
251.39999	91.21505	0.14075	124.35319
251.5	91.43298	0.14117	124.35339
251.60001	91.63445	0.14262	124.3536
251.7	91.83619	0.145	124.35381
251.8	92.04474	0.14516	124.35401
251.89999	92.24163	0.14743	124.35422
252	92.44972	0.14507	124.35443
252.10001	92.65971	0.14518	124.35464
252.2	92.87009	0.14516	124.35484
252.3	93.07648	0.14738	124.35505
252.39999	93.27734	0.14771	124.35526
252.5	93.48695	0.14679	124.35547
252.60001	93.70148	0.14772	124.35568
252.7	93.90009	0.1466	124.35589
252.8	94.11533	0.14876	124.3561
252.89999	94.31936	0.14744	124.3563
253	94.53353	0.14773	124.35651
253.10001	94.74274	0.14624	124.35672
253.2	94.94864	0.14774	124.35694
253.3	95.16101	0.14952	124.35714
253.39999	95.3623	0.14769	124.35735
253.5	95.57037	0.14771	124.35756
253.60001	95.7785	0.14613	124.35777
253.7	95.98649	0.14771	124.35797
253.8	96.18768	0.14598	124.35818
253.89999	96.40693	0.14643	124.3584
254	96.61878	0.14516	124.3586
254.10001	96.81625	0.14788	124.35881
254.2	97.02691	0.15028	124.35902
254.3	97.23488	0.15026	124.35923
254.39999	97.4472	0.15061	124.35943
254.5	97.65041	0.15288	124.35963
254.60001	97.85982	0.15321	124.35985
254.7	98.06969	0.15281	124.36005
254.8	98.28574	0.1528	124.36025
254.89999	98.48142	0.15542	124.36047
255	98.70175	0.15535	124.36067
255.10001	98.91468	0.15535	124.36088
255.2	99.13238	0.15535	124.3611
255.3	99.33971	0.15586	124.36131
255.39999	99.55731	0.15535	124.36151
255.5	99.77368	0.15315	124.36172
255.60001	99.98014	0.15325	124.36192
255.7	100.19965	0.15545	124.36214
255.8	100.4134	0.15599	124.36236
255.89999	100.61598	0.15526	124.36256
256	100.83698	0.15404	124.36277
256.10001	101.03812	0.15301	124.36298
256.20001	101.25606	0.15546	124.36318
256.29999	101.46927	0.15394	124.36339
256.39999	101.69148	0.15397	124.36359
256.5	101.89335	0.1572	124.36382
256.60001	102.10371	0.15563	124.36401
256.70001	102.3143	0.15527	124.36423
256.79999	102.5338	0.15535	124.36443
256.89999	102.7459	0.15579	124.36465
257	102.96227	0.15792	124.36485
257.10001	103.17367	0.15571	124.36505
257.20001	103.38627	0.15791	124.36526
257.29999	103.59312	0.15785	124.36547
257.39999	103.80743	0.15851	124.36567
257.5	104.02017	0.15929	124.36588
257.60001	104.24198	0.15782	124.36609
257.70001	104.45154	0.16051	124.36629
257.79999	104.67382	0.16044	124.36652
257.89999	104.89702	0.16044	124.36672
258	105.10372	0.16253	124.36693
258.10001	105.32684	0.16444	124.36714
258.20001	105.52769	0.16467	124.36734
258.29999	105.7513	0.16554	124.36756
258.39999	105.96322	0.16527	124.36777
258.5	106.1782	0.16275	124.36797
258.60001	106.40002	0.16302	124.36819
258.70001	106.6156	0.16299	124.36839
258.79999	106.82529	0.16267	124.3686
258.89999	107.03489	0.16275	124.3688
259	107.253	0.16039	124.36901
259.10001	107.46416	0.16044	124.36922
259.20001	107.67393	0.16305	124.36945
259.29999	107.89895	0.16327	124.36964
259.39999	108.09943	0.16333	124.36985
259.5	108.3131	0.16557	124.37006
259.60001	108.52133	0.16711	124.37027
259.70001	108.74188	0.16574	124.37047
259.79999	108.95768	0.16554	124.37068
259.89999	109.17443	0.16321	124.37089
260	109.39635	0.16299	124.37109
260.10001	109.60224	0.16299	124.3713
260.20001	109.82217	0.16299	124.37151
260.29999	110.0312	0.16306	124.37173
260.39999	110.25146	0.16784	124.37193
260.5	110.47316	0.16808	124.37214
260.60001	110.68675	0.16808	124.37234
260.70001	110.90397	0.16817	124.37256
260.79999	111.12102	0.17073	124.37276
260.89999	111.33558	0.17063	124.37298
261	111.5468	0.1722	124.37319
261.10001	111.76469	0.17325	124.37339
261.20001	111.98022	0.17056	124.3736
261.29999	112.20122	0.17063	124.37381
261.39999	112.41636	0.17063	124.37402
261.5	112.62473	0.16801	124.37422
261.60001	112.83787	0.16895	124.37443
261.70001	113.05148	0.17083	124.37463
261.79999	113.26592	0.17536	124.37486
261.89999	113.47946	0.17572	124.37505
262	113.70467	0.17382	124.37527
262.10001	113.90884	0.17312	124.37548
262.20001	114.12419	0.17318	124.37567
262.29999	114.34528	0.17318	124.37589
262.39999	114.55405	0.17318	124.3761
262.5	114.77655	0.17323	124.3763
262.60001	114.99798	0.17318	124.37651
262.70001	115.21677	0.17705	124.37672
262.79999	115.42139	0.17416	124.37692
262.89999	115.64287	0.17576	124.37714
263	115.85542	0.17709	124.37735
263.10001	116.07915	0.17572	124.37756
263.20001	116.29781	0.17797	124.37776
263.29999	116.51395	0.17562	124.37798
263.39999	116.7279	0.17573	124.37817
263.5	116.94885	0.17835	124.3784
263.60001	117.15923	0.17827	124.37861
263.70001	117.37398	0.17629	124.37881
263.79999	117.59007	0.17573	124.37901
263.89999	117.79619	0.17572	124.37923
264	118.02431	0.17768	124.37943
264.10001	118.23183	0.17971	124.37964
264.20001	118.45014	0.17829	124.37984
264.29999	118.65244	0.17827	124.38005
264.39999	118.87141	0.17825	124.38026
264.5	119.08421	0.17828	124.38047
264.60001	119.29837	0.18001	124.38067
264.70001	119.52105	0.18082	124.38088
264.79999	119.72898	0.18003	124.38109
264.89999	119.94952	0.18052	124.38129
265	120.16625	0.18089	124.38152
265.10001	120.3941	0.18221	124.38172
265.20001	120.61176	0.18081	124.38193
265.29999	120.82966	0.18346	124.38213
265.39999	121.04121	0.18185	124.38235
265.5	121.25716	0.18093	124.38256
265.60001	121.47861	0.18332	124.38277
265.70001	121.69834	0.18337	124.38297
265.79999	121.90827	0.18336	124.38318
265.89999	122.12852	0.18221	124.38339
266	122.34184	0.18076	124.38361
266.10001	122.55491	0.1829	124.38381
266.20001	122.77577	0.18344	124.38403
266.29999	122.99288	0.18423	124.38423
266.39999	123.20462	0.18344	124.38443
266.5	123.41527	0.18595	124.38464
266.60001	123.62926	0.18736	124.38485
266.70001	123.84376	0.18485	124.38506
266.79999	124.05873	0.18758	124.38526
266.89999	124.26952	0.18588	124.38547
267	124.48705	0.18854	124.38567
267.10001	124.70401	0.18846	124.38589
267.20001	124.91792	0.18605	124.38609
267.29999	125.14457	0.18436	124.3863
267.39999	125.36733	0.18697	124.38652
267.5	125.58517	0.18846	124.38672
267.60001	125.80588	0.18677	124.38693
267.70001	126.03017	0.18849	124.38714
267.79999	126.24971	0.18687	124.38734
267.89999	126.47132	0.1877	124.38757
268	126.68578	0.18844	124.38777
268.10001	126.90607	0.18846	124.38798
268.20001	127.12932	0.18839	124.38819
268.29999	127.34123	0.18998	124.38839
268.39999	127.56492	0.191	124.3886
268.5	127.78198	0.19114	124.38881
268.60001	127.99891	0.19099	124.38902
268.70001	128.2184	0.19101	124.38923
268.79999	128.4254	0.191	124.38943
268.89999	128.64578	0.19328	124.38965
269	128.86458	0.19357	124.38985
269.10001	129.0815	0.19596	124.39006
269.20001	129.30016	0.1936	124.39027
269.29999	129.50369	0.19382	124.39046
269.39999	129.72922	0.19355	124.39068
269.5	129.95486	0.19357	124.39088
269.60001	130.16603	0.19355	124.39109
269.70001	130.39554	0.19248	124.3913
269.79999	130.62128	0.19361	124.3915
269.89999	130.84087	0.19208	124.39172
270	131.05641	0.19099	124.39194
270.10001	131.27365	0.191	124.39214
270.20001	131.49565	0.18884	124.39235
270.29999	131.72426	0.19112	124.39256
270.39999	131.93669	0.191	124.39276
270.5	132.15483	0.19357	124.39298
270.60001	132.37097	0.19401	124.39319
270.70001	132.59303	0.1949	124.39339
270.79999	132.80371	0.19476	124.39361
270.89999	133.02928	0.19609	124.39381
271	133.24934	0.19606	124.39401
271.10001	133.45987	0.19796	124.39423
271.20001	133.67004	0.19869	124.39443
271.29999	133.89455	0.19828	124.39463
271.39999	134.11824	0.19873	124.39486
271.5	134.33678	0.19596	124.39505
271.60001	134.54741	0.19809	124.39526
271.70001	134.76176	0.19728	124.39546
271.79999	134.98448	0.19937	124.39567
271.89999	135.2048	0.2012	124.39589
272	135.41876	0.20053	124.3961
272.10001	135.64882	0.20017	124.3963
272.20001	135.87633	0.19847	124.39651
272.29999	136.09862	0.19895	124.39672
272.39999	136.31427	0.20112	124.39693
272.5	136.53461	0.20155	124.39714
272.60001	136.76187	0.19854	124.39735
272.70001	136.98322	0.2036	124.39756
272.79999	137.20459	0.20113	124.39776
272.89999	137.41954	0.20119	124.39797
273	137.63588	0.20384	124.39818
273.10001	137.86746	0.20374	124.39839
273.20001	138.08415	0.20374	124.39861
273.29999	138.29294	0.20272	124.39881
273.39999	138.52811	0.20371	124.39902
273.5	138.74266	0.20328	124.39922
273.60001	138.95784	0.20265	124.39943
273.70001	139.18037	0.20374	124.39964
273.79999	139.40376	0.20371	124.39985
273.89999	139.61589	0.20456	124.40005
274	139.83186	0.20363	124.40026
274.10001	140.05943	0.20374	124.40047
274.20001	140.28186	0.20466	124.40067
274.29999	140.50021	0.20629	124.40088
274.39999	140.72215	0.20624	124.4011
274.5	140.94582	0.20329	124.40131
274.60001	141.16287	0.20424	124.40151
274.70001	141.39728	0.2039	124.40172
274.79999	141.61845	0.20614	124.40192
274.89999	141.83923	0.20363	124.40214
275	142.06937	0.2036	124.40235
275.10001	142.28564	0.20373	124.40256
275.20001	142.51082	0.20401	124.40277
275.29999	142.72844	0.20374	124.40298
275.39999	142.94951	0.20637	124.40318
275.5	143.17175	0.20626	124.40339
275.60001	143.38498	0.20892	124.40359
275.70001	143.61214	0.20883	124.4038
275.79999	143.84021	0.20693	124.40402
275.89999	144.06126	0.20889	124.40423
276	144.27701	0.20754	124.40443
276.10001	144.49834	0.20893	124.40464
276.20001	144.72649	0.20621	124.40485
276.29999	144.94571	0.2063	124.40506
276.39999	145.15804	0.20627	124.40527
276.5	145.39122	0.20736	124.40546
276.60001	145.60269	0.2089	124.40568
276.70001	145.82632	0.21143	124.40588
276.79999	146.05507	0.21197	124.40609
276.89999	146.2749	0.21129	124.4063
277	146.50264	0.2131	124.40652
277.10001	146.72127	0.21392	124.40672
277.20001	146.95042	0.21645	124.40694
277.29999	147.16788	0.21896	124.40714
277.39999	147.39703	0.21637	124.40734
277.5	147.62077	0.21577	124.40755
277.60001	147.84612	0.2163	124.40777
277.70001	148.05969	0.21643	124.40797
277.79999	148.28322	0.21675	124.40819
277.89999	148.50345	0.21382	124.40839
278	148.73775	0.21393	124.40859
278.10001	148.95799	0.21393	124.40881
278.20001	149.18622	0.21132	124.40901
278.29999	149.40656	0.21812	124.40922
278.39999	149.64378	0.21809	124.40944
278.5	149.85925	0.21738	124.40965
278.60001	150.09523	0.21647	124.40985
278.70001	150.31909	0.21648	124.41006
278.79999	150.53954	0.21649	124.41026
278.89999	150.76155	0.21647	124.41046
279	150.99525	0.21647	124.41068
279.10001	151.22461	0.21647	124.41088
279.20001	151.44775	0.21886	124.41109
279.29999	151.67674	0.21869	124.4113
279.39999	151.90216	0.21903	124.41151
279.5	152.12337	0.21863	124.41171
279.60001	152.35849	0.22136	124.41193
279.70001	152.58189	0.22155	124.41214
279.79999	152.81233	0.22157	124.41235
279.89999	153.0495	0.22159	124.41255
280	153.27597	0.21896	124.41276
280.10001	153.50084	0.21902	124.41297
280.20001	153.73305	0.21889	124.41319
280.29999	153.95934	0.22178	124.41339
280.39999	154.18147	0.22413	124.4136
280.5	154.41339	0.22411	124.41381
280.60001	154.62846	0.22413	124.41401
280.70001	154.86212	0.22206	124.41422
280.79999	155.09447	0.22405	124.41443
280.89999	155.32222	0.22407	124.41465
281	155.54283	0.22909	124.41486
281.10001	155.77171	0.22655	124.41506
281.20001	155.98309	0.22592	124.41525
281.29999	156.21846	0.22507	124.41547
281.39999	156.4407	0.22408	124.41566
281.5	156.66934	0.22226	124.41589
281.60001	156.8979	0.22415	124.4161
281.70001	157.12425	0.22588	124.41631
281.79999	157.36017	0.22419	124.41651
281.89999	157.58459	0.22388	124.41672
282	157.81387	0.22453	124.41692
282.10001	158.04849	0.2267	124.41714
282.20001	158.27234	0.22804	124.41735
282.29999	158.49965	0.22665	124.41756
282.39999	158.72766	0.22666	124.41777
282.5	158.95721	0.22666	124.41797
282.60001	159.18967	0.22869	124.41817
282.70001	159.41202	0.22927	124.4184
282.79999	159.64438	0.22931	124.4186
282.89999	159.86378	0.22921	124.41881
283	160.10193	0.23099	124.41902
283.10001	160.32219	0.23175	124.41923
283.20001	160.54364	0.23175	124.41943
283.29999	160.7614	0.23109	124.41964
283.39999	160.99838	0.22917	124.41985
283.5	161.22923	0.22921	124.42005
283.60001	161.44107	0.22921	124.42026
283.70001	161.67389	0.23166	124.42046
283.79999	161.89958	0.23114	124.42067
283.89999	162.1319	0.23169	124.42088
284	162.36813	0.23175	124.4211
284.10001	162.58507	0.23186	124.4213
284.20001	162.81921	0.23411	124.42152
284.29999	163.05692	0.2341	124.42172
284.39999	163.28307	0.23382	124.42192
284.5	163.51018	0.23174	124.42213
284.60001	163.74458	0.23122	124.42236
284.70001	163.97101	0.23364	124.42255
284.79999	164.20158	0.2343	124.42277
284.89999	164.42458	0.23435	124.42297
285	164.6649	0.23696	124.42319
285.10001	164.87582	0.23684	124.42339
285.20001	165.11751	0.23756	124.42361
285.29999	165.33791	0.2367	124.42382
285.39999	165.56366	0.23685	124.42403
285.5	165.79204	0.23945	124.42422
285.60001	166.01939	0.23939	124.42444
285.70001	166.24713	0.23939	124.42464
285.79999	166.47789	0.23691	124.42485
285.89999	166.70407	0.23685	124.42506
286	166.93413	0.23676	124.42526
286.10001	167.14966	0.23842	124.42547
286.20001	167.37772	0.23939	124.42568
286.29999	167.61128	0.23939	124.42588
286.39999	167.84009	0.23939	124.42609
286.5	168.06586	0.2407	124.4263
286.60001	168.29994	0.24043	124.42651
286.70001	168.52867	0.2416	124.42672
286.79999	168.76839	0.24193	124.42693
286.89999	168.99741	0.24153	124.42714
287	169.22739	0.24198	124.42734
287.10001	169.4534	0.24194	124.42757
287.20001	169.68764	0.24215	124.42777
287.29999	169.90938	0.24187	124.42797
287.39999	170.13885	0.2417	124.42818
287.5	170.36086	0.24413	124.42839
287.60001	170.59283	0.24449	124.4286
287.70001	170.82625	0.24448	124.42882
287.79999	171.03903	0.24278	124.42902
287.89999	171.2742	0.24453	124.42922
288	171.49716	0.24683	124.42944
288.10001	171.72168	0.24675	124.42964
288.20001	171.95682	0.24447	124.42986
288.29999	172.17982	0.24449	124.43006
288.39999	172.39926	0.24452	124.43027
288.5	172.61678	0.24491	124.43046
288.60001	172.85995	0.24708	124.43068
288.70001	173.08823	0.24565	124.43089
288.79999	173.31432	0.24938	124.4311
288.89999	173.54221	0.24492	124.4313
289	173.77856	0.24709	124.4315
289.10001	174.00401	0.24924	124.43173
289.20001	174.23509	0.24957	124.43193
289.29999	174.46672	0.25095	124.43214
289.39999	174.69429	0.24957	124.43235
289.5	174.91841	0.24958	124.43256
289.60001	175.16261	0.24697	124.43277
289.70001	175.38681	0.24674	124.43297
289.79999	175.61989	0.24655	124.43319
289.89999	175.84586	0.24703	124.4334
290	176.0862	0.24759	124.4336
290.10001	176.30919	0.24959	124.43381
290.20001	176.54541	0.24958	124.43401
290.29999	176.77484	0.252	124.43423
290.39999	177.0015	0.25212	124.43443
290.5	177.2363	0.25166	124.43463
290.60001	177.46472	0.25215	124.43484
290.70001	177.69753	0.25253	124.43505
290.79999	177.92836	0.25471	124.43526
290.89999	178.16115	0.25467	124.43546
291	178.38904	0.25467	124.43567
291.10001	178.61948	0.25467	124.43588
291.20001	178.85342	0.25467	124.4361
291.29999	179.08936	0.25359	124.4363
291.39999	179.32127	0.25212	124.43652
291.5	179.55859	0.25663	124.43671
291.60001	179.8037	0.25573	124.43694
291.70001	180.03044	0.2567	124.43715
291.79999	180.24539	0.25456	124.43734
291.89999	180.48659	0.2577	124.43755
292	180.7274	0.25744	124.43777
292.10001	180.9474	0.25986	124.43797
292.20001	181.18404	0.25977	124.43817
292.29999	181.41138	0.25977	124.4384
292.39999	181.6423	0.25977	124.43859
292.5	181.8743	0.25977	124.43881
292.60001	182.10211	0.25719	124.43902
292.70001	182.33282	0.25959	124.43922
292.79999	182.56197	0.25452	124.43943
292.89999	182.79245	0.25729	124.43964
293	183.02208	0.25722	124.43984
293.10001	183.24817	0.25706	124.44005
293.20001	183.47537	0.25848	124.44026
293.29999	183.70602	0.25987	124.44047
293.39999	183.93808	0.25977	124.44067
293.5	184.1665	0.25961	124.44088
293.60001	184.40912	0.25977	124.4411
293.70001	184.64276	0.25786	124.44131
293.79999	184.87132	0.25986	124.44151
293.89999	185.10909	0.25764	124.44172
294	185.33128	0.26149	124.44193
294.10001	185.5666	0.26233	124.44213
294.20001	185.79791	0.26496	124.44235
294.29999	186.02448	0.26486	124.44257
294.39999	186.25826	0.26481	124.44277
294.5	186.489	0.26312	124.44297
294.60001	186.72534	0.26489	124.44318
294.70001	186.9576	0.26672	124.44339
294.79999	187.18605	0.26741	124.4436
294.89999	187.41399	0.2674	124.4438
295	187.64658	0.26532	124.44402
295.10001	187.87492	0.26755	124.44421
295.20001	188.1093	0.26741	124.44444
295.29999	188.33899	0.26741	124.44464
295.39999	188.56348	0.26556	124.44485
295.5	188.79657	0.26514	124.44506
295.60001	189.0294	0.26733	124.44526
295.70001	189.25253	0.26714	124.44547
295.79999	189.48849	0.26741	124.44568
295.89999	189.71541	0.26741	124.44588
296	189.95052	0.26497	124.44608
296.10001	190.19121	0.26665	124.44631
296.20001	190.42128	0.26589	124.44652
296.29999	190.65024	0.26601	124.44672
296.39999	190.88794	0.26741	124.44693
296.5	191.12021	0.26774	124.44714
296.60001	191.35141	0.26998	124.44734
296.70001	191.57596	0.26995	124.44755
296.79999	191.80684	0.27076	124.44777
296.89999	192.04681	0.26996	124.44798
297	192.27469	0.26995	124.44819
297.10001	192.50832	0.26752	124.44839
297.20001	192.74069	0.26848	124.4486
297.29999	192.97191	0.27242	124.44881
297.39999	193.2005	0.2725	124.44901
297.5	193.4279	0.2725	124.44922
297.60001	193.66464	0.2725	124.44944
297.70001	193.89656	0.2725	124.44965
297.79999	194.12122	0.27044	124.44985
297.89999	194.35216	0.27019	124.45006
298	194.57916	0.27244	124.45026
298.10001	194.82364	0.27455	124.45048
298.20001	195.04622	0.27501	124.45068
298.29999	195.28123	0.27639	124.45088
298.39999	195.50858	0.27517	124.4511
298.5	195.74301	0.27693	124.4513
298.60001	195.98651	0.27536	124.45152
298.70001	196.20515	0.27519	124.45171
298.79999	196.44495	0.27529	124.45193
298.89999	196.67418	0.27669	124.45214
299	196.90678	0.27728	124.45235
299.10001	197.14061	0.27527	124.45255
299.20001	197.37415	0.27675	124.45276
299.29999	197.59995	0.27601	124.45298
299.39999	197.83252	0.27957	124.45319
299.5	198.05515	0.27753	124.45339
299.60001	198.28001	0.27533	124.45361
299.70001	198.52924	0.27763	124.4538
299.79999	198.74786	0.27512	124.45402
299.89999	198.97684	0.27511	124.45422
300	199.21501	0.27764	124.45443
300.10001	199.43835	0.277	124.45464
300.20001	199.66692	0.27762	124.45484
300.29999	199.90352	0.27759	124.45505
300.39999	200.1227	0.27625	124.45526
300.5	200.35689	0.27547	124.45546
300.60001	200.58768	0.27761	124.45568
300.70001	200.82098	0.27906	124.45589
300.79999	201.05922	0.28175	124.45609
300.89999	201.29243	0.28269	124.4563
301	201.52214	0.28153	124.45651
301.10001	201.75671	0.28013	124.45672
301.20001	202.00026	0.27864	124.45692
301.29999	202.22974	0.2776	124.45713
301.39999	202.4718	0.28025	124.45735
301.5	202.70824	0.28274	124.45756
301.60001	202.94109	0.28314	124.45776
301.70001	203.18359	0.28744	124.45797
301.79999	203.40454	0.28342	124.45818
301.89999	203.65121	0.28473	124.4584
302	203.88371	0.28267	124.4586
302.10001	204.11302	0.28275	124.45881
302.20001	204.34531	0.28269	124.45902
302.29999	204.58318	0.28269	124.45922
302.39999	204.8105	0.28367	124.45943
302.5	205.04768	0.28269	124.45964
302.60001	205.28056	0.28269	124.45985
302.70001	205.51184	0.28533	124.46005
302.79999	205.74747	0.28747	124.46026
302.89999	205.97215	0.28261	124.46046
303	206.2075	0.28518	124.46068
303.10001	206.45044	0.28258	124.46089
303.20001	206.68466	0.284	124.4611
303.29999	206.9147	0.28352	124.46131
303.39999	207.15363	0.2872	124.46152
303.5	207.38304	0.28684	124.46172
303.60001	207.61609	0.29175	124.46193
303.70001	207.85872	0.29028	124.46214
303.79999	208.09181	0.28781	124.46235
303.89999	208.32921	0.28753	124.46256
304	208.55835	0.2878	124.46277
304.10001	208.80371	0.28796	124.46297
304.20001	209.03113	0.28824	124.46318
304.29999	209.25812	0.28523	124.46339
304.39999	209.4993	0.28268	124.46359
304.5	209.72342	0.28526	124.46381
304.60001	209.9585	0.28655	124.46402
304.70001	210.18066	0.28805	124.46421
304.79999	210.42723	0.29035	124.46444
304.89999	210.65218	0.29069	124.46464
305	210.88167	0.29254	124.46484
305.10001	211.1125	0.29282	124.46506
305.20001	211.34102	0.29287	124.46526
305.29999	211.57564	0.29287	124.46547
305.39999	211.8056	0.29162	124.46568
305.5	212.04857	0.29285	124.46588
305.60001	212.27727	0.29552	124.46609
305.70001	212.50995	0.29534	124.46631
305.79999	212.75108	0.29543	124.46651
305.89999	212.98145	0.29542	124.46673
306	213.2213	0.29542	124.46693
306.10001	213.4482	0.29743	124.46713
306.20001	213.67566	0.29796	124.46735
306.29999	213.92468	0.29703	124.46757
306.39999	214.15205	0.29541	124.46777
306.5	214.38481	0.29542	124.46798
306.60001	214.61923	0.29542	124.46819
306.70001	214.85715	0.29542	124.46839
306.79999	215.08171	0.29615	124.4686
306.89999	215.311	0.29542	124.4688
307	215.54201	0.29314	124.46901
307.10001	215.77321	0.29546	124.46922
307.20001	216.00414	0.29844	124.46942
307.29999	216.23798	0.29916	124.46964
307.39999	216.46259	0.30036	124.46984
307.5	216.6951	0.3002	124.47005
307.60001	216.92007	0.29811	124.47025
307.70001	217.15514	0.29836	124.47047
307.79999	217.39085	0.30054	124.47068
307.89999	217.62883	0.30311	124.47089
308	217.8743	0.30112	124.47109
308.10001	218.10936	0.30307	124.47131
308.20001	218.33627	0.30313	124.47152
308.29999	218.56557	0.30306	124.47173
308.39999	218.80931	0.30571	124.47193
308.5	219.03256	0.30568	124.47214
308.60001	219.26961	0.30826	124.47235
308.70001	219.50583	0.30817	124.47255
308.79999	219.74429	0.30551	124.47278
308.89999	219.96906	0.30561	124.47298
309	220.19633	0.30561	124.47318
309.10001	220.42883	0.30559	124.4734
309.20001	220.66475	0.30561	124.4736
309.29999	220.89024	0.30561	124.47381
309.39999	221.12091	0.30561	124.47401
309.5	221.35437	0.30561	124.47422
309.60001	221.58443	0.30826	124.47443
309.70001	221.81914	0.30576	124.47464
309.79999	222.0414	0.3056	124.47484
309.89999	222.27275	0.30788	124.47504
310	222.50294	0.30817	124.47526
310.10001	222.73679	0.30567	124.47546
310.20001	222.9738	0.30822	124.47568
310.29999	223.20483	0.30815	124.47589
310.39999	223.44553	0.30802	124.4761
310.5	223.67831	0.30813	124.4763
310.60001	223.90401	0.31077	124.47651
310.70001	224.14528	0.31062	124.47673
310.79999	224.36848	0.3081	124.47694
310.89999	224.60132	0.30805	124.47714
311	224.83859	0.30816	124.47735
311.10001	225.06653	0.31016	124.47755
311.20001	225.30154	0.30773	124.47777
311.29999	225.53415	0.30798	124.47797
311.39999	225.76917	0.30924	124.47819
311.5	226.00037	0.31329	124.4784
311.60001	226.22165	0.31324	124.47861
311.70001	226.46019	0.31519	124.47881
311.79999	226.68175	0.31524	124.47902
311.89999	226.92102	0.31579	124.47923
312	227.15663	0.31565	124.47944
312.10001	227.37566	0.31322	124.47964
312.20001	227.60558	0.31325	124.47984
312.29999	227.83295	0.3136	124.48006
312.39999	228.07837	0.31093	124.48026
312.5	228.30611	0.31074	124.48046
312.60001	228.55383	0.31335	124.48067
312.70001	228.78313	0.31589	124.4809
312.79999	229.02235	0.31809	124.48109
312.89999	229.2598	0.31837	124.48131
313	229.49574	0.31675	124.48151
313.10001	229.73291	0.31754	124.48172
313.20001	229.96396	0.31807	124.48193
313.29999	230.20213	0.31597	124.48213
313.39999	230.43797	0.31716	124.48235
313.5	230.66806	0.31579	124.48256
313.60001	230.90976	0.3184	124.48277
313.70001	231.14708	0.31834	124.48297
313.79999	231.37996	0.31834	124.48318
313.89999	231.61557	0.32099	124.48338
314	231.84427	0.32175	124.48359
314.10001	232.08292	0.32351	124.48382
314.20001	232.315	0.32108	124.48402
314.29999	232.54155	0.31686	124.48422
314.39999	232.77876	0.31836	124.48444
314.5	233.00298	0.31846	124.48464
314.60001	233.23703	0.32093	124.48486
314.70001	233.46761	0.32126	124.48505
314.79999	233.7028	0.32345	124.48526
314.89999	233.93889	0.32086	124.48547
315	234.17274	0.31975	124.48568
315.10001	234.41716	0.32331	124.48588
315.20001	234.64934	0.32343	124.48611
315.29999	234.87624	0.32119	124.48631
315.39999	235.11165	0.32345	124.48651
315.5	235.34433	0.32344	124.48672
315.60001	235.57405	0.32598	124.48693
315.70001	235.80618	0.32586	124.48714
315.79999	236.0486	0.32598	124.48734
315.89999	236.27393	0.32774	124.48755
316	236.51369	0.32597	124.48777
316.10001	236.74345	0.32633	124.48798
316.20001	236.97916	0.32465	124.48818
316.29999	237.21449	0.32601	124.48839
316.39999	237.43729	0.3267	124.4886
316.5	237.67815	0.32768	124.48881
316.60001	237.91452	0.32878	124.48902
316.70001	238.13324	0.32847	124.48922
316.79999	238.36702	0.33009	124.48943
316.89999	238.59401	0.33153	124.48964
317	238.83414	0.32895	124.48984
317.10001	239.0571	0.33115	124.49004
317.20001	239.28931	0.33107	124.49026
317.29999	239.52477	0.33359	124.49046
317.39999	239.76584	0.33104	124.49068
317.5	240.00435	0.33108	124.49089
317.60001	240.23216	0.33108	124.4911
317.70001	240.47206	0.33108	124.49131
317.79999	240.69955	0.33099	124.49151
317.89999	240.93314	0.33103	124.49171
318	241.16896	0.33108	124.49193
318.10001	241.40363	0.33108	124.49214
318.20001	241.6347	0.33108	124.49235
318.29999	241.8754	0.33358	124.49255
318.39999	242.10869	0.33375	124.49277
318.5	242.34981	0.33623	124.49298
318.60001	242.57254	0.33681	124.49319
318.70001	242.80934	0.3362	124.4934
318.79999	243.04059	0.33536	124.4936
318.89999	243.27684	0.33362	124.4938
319	243.50461	0.33362	124.49402
319.10001	243.73819	0.33371	124.49422
319.20001	243.97278	0.33362	124.49442
319.29999	244.19867	0.33293	124.49464
319.39999	244.42531	0.33135	124.49484
319.5	244.66255	0.33364	124.49505
319.60001	244.89757	0.33393	124.49525
319.70001	245.14114	0.33364	124.49546
319.79999	245.36987	0.33761	124.49568
319.89999	245.60995	0.3382	124.49589
320	245.84015	0.33872	124.49609
320.10001	246.07559	0.34002	124.4963
320.20001	246.31363	0.33861	124.49651
320.29999	246.54065	0.34132	124.49671
320.39999	246.77301	0.33866	124.49693
320.5	247.01477	0.33872	124.49715
320.60001	247.25293	0.33869	124.49735
320.70001	247.48447	0.33961	124.49756
320.79999	247.71648	0.34136	124.49776
320.89999	247.95786	0.34125	124.49799
321	248.19196	0.34126	124.49819
321.10001	248.4137	0.33987	124.4984
321.20001	248.65668	0.34167	124.4986
321.29999	248.88539	0.34383	124.49882
321.39999	249.11322	0.34303	124.49902
321.5	249.3539	0.34261	124.49922
321.60001	249.5746	0.34126	124.49944
321.70001	249.81754	0.34061	124.49964
321.79999	250.03604	0.34233	124.49984
321.89999	250.26318	0.34381	124.50005
322	250.51006	0.34124	124.50026
322.10001	250.74362	0.34388	124.50047
322.20001	250.97493	0.34115	124.50067
322.29999	251.21144	0.34362	124.50089
322.39999	251.45009	0.34506	124.5011
322.5	251.6779	0.34361	124.5013
322.60001	251.91467	0.34384	124.50151
322.70001	252.14543	0.34633	124.50172
322.79999	252.38423	0.34635	124.50193
322.89999	252.62093	0.34636	124.50214
323	252.85159	0.34636	124.50235
323.10001	253.09206	0.34762	124.50256
323.20001	253.31749	0.34427	124.50277
323.29999	253.56093	0.34377	124.50298
323.39999	253.78218	0.3464	124.50318
323.5	254.02493	0.349	124.50339
323.60001	254.26057	0.34744	124.50361
323.70001	254.48581	0.34899	124.50381
323.79999	254.71854	0.34637	124.50402
323.89999	254.95326	0.34639	124.50423
324	255.18431	0.34896	124.50443
324.10001	255.41	0.3489	124.50462
324.20001	255.64311	0.3489	124.50484
324.29999	255.86885	0.3489	124.50504
324.39999	256.11234	0.35028	124.50526
324.5	256.34909	0.35132	124.50547
324.60001	256.57904	0.35009	124.50568
324.70001	256.82275	0.35146	124.50588
324.79999	257.05203	0.35131	124.50609
324.89999	257.28162	0.35149	124.50631
325	257.5228	0.35145	124.50652
325.10001	257.76041	0.35325	124.50673
325.20001	257.99969	0.35367	124.50693
325.29999	258.23315	0.35615	124.50713
325.39999	258.47464	0.35402	124.50736
325.5	258.70734	0.35739	124.50756
325.60001	258.93716	0.3581	124.50777
325.70001	259.17093	0.35841	124.50798
325.79999	259.4115	0.35633	124.50819
325.89999	259.63406	0.35683	124.50838
326	259.86737	0.3585	124.5086
326.10001	260.10498	0.35667	124.5088
326.20001	260.33612	0.35654	124.50902
326.29999	260.55371	0.3537	124.50922
326.39999	260.78964	0.35185	124.50942
326.5	261.02954	0.35368	124.50964
326.60001	261.24786	0.35664	124.50984
326.70001	261.48087	0.35654	124.51004
326.79999	261.71567	0.35911	124.51025
326.89999	261.95059	0.35909	124.51046
327	262.18961	0.36173	124.51067
327.10001	262.42349	0.36164	124.51089
327.20001	262.65335	0.36398	124.51109
327.29999	262.88809	0.36158	124.5113
327.39999	263.12543	0.36162	124.51152
327.5	263.35519	0.36047	124.51173
327.60001	263.59998	0.36011	124.51193
327.70001	263.82407	0.35906	124.51215
327.79999	264.0473	0.35909	124.51234
327.89999	264.28125	0.35843	124.51255
328	264.51703	0.35653	124.51278
328.10001	264.74356	0.35987	124.51298
328.20001	264.97812	0.36164	124.51318
328.29999	265.20346	0.36254	124.5134
328.39999	265.43524	0.36423	124.5136
328.5	265.6701	0.36418	124.5138
328.60001	265.89035	0.36191	124.51402
328.70001	266.12387	0.36197	124.51422
328.79999	266.34	0.36164	124.51443
328.89999	266.56714	0.36427	124.51463
329	266.79919	0.36418	124.51484
329.10001	267.02631	0.36499	124.51505
329.20001	267.26532	0.36674	124.51526
329.29999	267.48917	0.36726	124.51546
329.39999	267.72467	0.36749	124.51567
329.5	267.96539	0.36662	124.51589
329.60001	268.19452	0.36673	124.5161
329.70001	268.42599	0.36673	124.5163
329.79999	268.65005	0.36933	124.51651
329.89999	268.88998	0.36666	124.51673
330	269.11438	0.36673	124.51694
330.10001	269.34412	0.36673	124.51714
330.20001	269.57309	0.36772	124.51735
330.29999	269.8017	0.36889	124.51756
330.39999	270.0336	0.36641	124.51776
330.5	270.26202	0.36806	124.51797
330.60001	270.49152	0.37186	124.5182
330.70001	270.71497	0.37183	124.51839
330.79999	270.94229	0.37182	124.5186
330.89999	271.17865	0.37225	124.51881
331	271.3989	0.37045	124.51902
331.10001	271.62183	0.37288	124.51922
331.20001	271.85107	0.37426	124.51943
331.29999	272.07883	0.37423	124.51964
331.39999	272.30319	0.37013	124.51984
331.5	272.53238	0.37035	124.52005
331.60001	272.76962	0.37105	124.52026
331.70001	272.98987	0.36921	124.52046
331.79999	273.22354	0.37188	124.52068
331.89999	273.45691	0.37366	124.52089
332	273.67889	0.37437	124.5211
332.10001	273.91113	0.37437	124.52131
332.20001	274.13437	0.37437	124.52151
332.29999	274.3681	0.37437	124.52172
332.39999	274.59879	0.37519	124.52194
332.5	274.82819	0.37692	124.52215
332.60001	275.05624	0.37704	124.52235
332.70001	275.27838	0.37641	124.52256
332.79999	275.50327	0.37459	124.52277
332.89999	275.72562	0.37912	124.52298
333	275.9574	0.37683	124.52318
333.10001	276.18826	0.37692	124.5234
333.20001	276.40628	0.37465	124.5236
333.29999	276.63229	0.37398	124.52382
333.39999	276.85553	0.37693	124.52402
333.5	277.07211	0.37864	124.52423
333.60001	277.30115	0.37858	124.52444
333.70001	277.52505	0.38127	124.52464
333.79999	277.74475	0.38078	124.52483
333.89999	277.97125	0.37948	124.52505
334	278.19363	0.3816	124.52526
334.10001	278.43115	0.3828	124.52547
334.20001	278.65295	0.38179	124.52567
334.29999	278.88263	0.37964	124.52588
334.39999	279.10669	0.37947	124.52611
334.5	279.34042	0.38275	124.52631
334.60001	279.56094	0.38205	124.52651
334.70001	279.78735	0.38201	124.52673
334.79999	280.01254	0.38172	124.52693
334.89999	280.2413	0.38179	124.52714
335	280.46518	0.38375	124.52734
335.10001	280.68222	0.38195	124.52755
335.20001	280.91797	0.38329	124.52777
335.29999	281.15103	0.38488	124.52798
335.39999	281.36874	0.38712	124.52818
335.5	281.59979	0.38736	124.5284
335.60001	281.82272	0.38708	124.52859
335.70001	282.04395	0.38742	124.5288
335.79999	282.27756	0.3871	124.52903
335.89999	282.50104	0.3878	124.52924
336	282.71832	0.3871	124.52942
336.10001	282.93649	0.38708	124.52963
336.20001	283.16342	0.3871	124.52984
336.29999	283.39218	0.3871	124.53004
336.39999	283.61853	0.38936	124.53025
336.5	283.85272	0.38961	124.53047
336.60001	284.06546	0.38968	124.53068
336.70001	284.30969	0.39225	124.53089
336.79999	284.52444	0.39269	124.53109
336.89999	284.75928	0.39403	124.53131
337	284.9837	0.39219	124.53152
337.10001	285.20358	0.39431	124.53172
337.20001	285.43384	0.39216	124.53193
337.29999	285.65628	0.3922	124.53214
337.39999	285.87878	0.39479	124.53235
337.5	286.10483	0.39522	124.53255
337.60001	286.33652	0.39474	124.53278
337.70001	286.56168	0.39215	124.53298
337.79999	286.78235	0.39292	124.53319
337.89999	287.01337	0.39484	124.53339
338	287.21869	0.39845	124.5336
338.10001	287.44913	0.39492	124.53381
338.20001	287.67102	0.39475	124.53402
338.29999	287.88007	0.39474	124.53422
338.39999	288.11523	0.39491	124.53443
338.5	288.32373	0.39459	124.53464
338.60001	288.54837	0.39477	124.53484
338.70001	288.77805	0.39446	124.53505
338.79999	288.99911	0.39527	124.53526
338.89999	289.22266	0.39731	124.53548
339	289.44644	0.39731	124.53568
339.10001	289.67188	0.3999	124.53589
339.20001	289.89661	0.39793	124.53609
339.29999	290.11935	0.39987	124.53631
339.39999	290.34247	0.39984	124.53651
339.5	290.56256	0.40151	124.53671
339.60001	290.78635	0.3999	124.53693
339.70001	291.00732	0.39955	124.53714
339.79999	291.2381	0.39998	124.53735
339.89999	291.45621	0.40194	124.53756
340	291.66815	0.40416	124.53777
340.10001	291.91467	0.40491	124.53798
340.20001	292.12103	0.40493	124.53819
340.29999	292.34894	0.4024	124.5384
340.39999	292.5657	0.40186	124.5386
340.5	292.7934	0.40319	124.53881
340.60001	292.99866	0.40494	124.53902
340.70001	293.2309	0.40493	124.53922
340.79999	293.44226	0.40493	124.53944
340.89999	293.66766	0.40493	124.53963
341	293.87415	0.40493	124.53985
341.10001	294.09665	0.40493	124.54005
341.20001	294.32391	0.40694	124.54026
341.29999	294.55386	0.40747	124.54047
341.39999	294.77148	0.40748	124.54067
341.5	294.99118	0.40752	124.54088
341.60001	295.22513	0.41001	124.5411
341.70001	295.44708	0.40761	124.54131
341.79999	295.67587	0.40842	124.54151
341.89999	295.8902	0.41009	124.54173
342	296.1181	0.40752	124.54192
342.10001	296.33698	0.4074	124.54214
342.20001	296.55502	0.40755	124.54236
342.29999	296.77652	0.40747	124.54256
342.39999	297.00073	0.40748	124.54276
342.5	297.22812	0.40959	124.54298
342.60001	297.44522	0.40989	124.5432
342.70001	297.66879	0.41002	124.54339
342.79999	297.88846	0.41002	124.54361
342.89999	298.10242	0.41011	124.54382
343	298.32617	0.4126	124.54402
343.10001	298.54089	0.41476	124.54423
343.20001	298.7623	0.41511	124.54443
343.29999	298.97	0.41222	124.54462
343.39999	299.1947	0.41319	124.54484
343.5	299.41965	0.41523	124.54504
343.60001	299.64633	0.41425	124.54526
343.70001	299.86893	0.41257	124.54547
343.79999	300.0842	0.41113	124.54568
343.89999	300.30951	0.41002	124.54588
344	300.53372	0.41261	124.54609
344.10001	300.75809	0.41268	124.5463
344.20001	300.9776	0.41257	124.54652
344.29999	301.20618	0.41608	124.54672
344.39999	301.43243	0.41767	124.54693
344.5	301.65002	0.41766	124.54714
344.60001	301.86652	0.41764	124.54736
344.70001	302.09622	0.41996	124.54756
344.79999	302.31241	0.42234	124.54778
344.89999	302.53305	0.42014	124.54798
345	302.75122	0.42021	124.54818
345.10001	302.96719	0.41761	124.54839
345.20001	303.18906	0.41766	124.5486
345.29999	303.40866	0.42003	124.54881
345.39999	303.61887	0.42021	124.54901
345.5	303.84653	0.42021	124.54922
345.60001	304.05554	0.41941	124.54942
345.70001	304.27554	0.42029	124.54964
345.79999	304.49258	0.42285	124.54984
345.89999	304.71692	0.42271	124.55004
346	304.94235	0.42285	124.55025
346.10001	305.16583	0.4245	124.55046
346.20001	305.39435	0.42467	124.55067
346.29999	305.61734	0.42286	124.55089
346.39999	305.83801	0.42538	124.55109
346.5	306.05533	0.42449	124.5513
346.60001	306.28275	0.42293	124.55152
346.70001	306.50049	0.42533	124.55173
346.79999	306.71509	0.42532	124.55193
346.89999	306.94647	0.42789	124.55214
347	307.16257	0.42785	124.55235
347.10001	307.39005	0.42975	124.55257
347.20001	307.61395	0.42777	124.55277
347.29999	307.82556	0.42506	124.55298
347.39999	308.04245	0.42531	124.55319
347.5	308.26031	0.42383	124.5534
347.60001	308.47949	0.42422	124.5536
347.70001	308.69684	0.42551	124.55381
347.79999	308.91174	0.42769	124.55402
347.89999	309.14099	0.42793	124.55422
348	309.34943	0.4279	124.55443
348.10001	309.56345	0.43021	124.55463
348.20001	309.78888	0.43011	124.55484
348.29999	310.00388	0.4304	124.55505
348.39999	310.22784	0.4304	124.55525
348.5	310.45114	0.43177	124.55546
348.60001	310.67239	0.43283	124.55569
348.70001	310.90222	0.43214	124.55589
348.79999	311.11664	0.42796	124.55609
348.89999	311.3367	0.43038	124.5563
349	311.55765	0.43295	124.55651
349.10001	311.77921	0.43294	124.55672
349.20001	311.99362	0.43558	124.55692
349.29999	312.20413	0.43601	124.55714
349.39999	312.42542	0.43552	124.55735
349.5	312.64471	0.43549	124.55756
349.60001	312.87097	0.43565	124.55776
349.70001	313.08472	0.43564	124.55798
349.79999	313.29471	0.43298	124.55818
349.89999	313.51862	0.43556	124.5584
350	313.71844	0.43675	124.55859
350.10001	313.95087	0.43554	124.55882
350.20001	314.15564	0.43719	124.55901
350.29999	314.36691	0.4379	124.55923
350.39999	314.58817	0.43633	124.55943
350.5	314.79556	0.43549	124.55964
350.60001	315.01312	0.43549	124.55984
350.70001	315.22897	0.43809	124.56005
350.79999	315.4408	0.43804	124.56026
350.89999	315.6601	0.43804	124.56047
351	315.87866	0.43778	124.56067
351.10001	316.11957	0.43807	124.56089
351.20001	316.32187	0.43804	124.5611
351.29999	316.53934	0.43804	124.56131
351.39999	316.74323	0.43918	124.56151
351.5	316.96918	0.43801	124.56172
351.60001	317.17651	0.44063	124.56193
351.70001	317.39032	0.44058	124.56213
351.79999	317.61472	0.44058	124.56236
351.89999	317.82034	0.44439	124.56256
352	318.04297	0.44311	124.56277
352.10001	318.25757	0.44551	124.56297
352.20001	318.46741	0.44568	124.56318
352.29999	318.68076	0.44378	124.56339
352.39999	318.89691	0.44337	124.5636
352.5	319.11044	0.44502	124.5638
352.60001	319.31226	0.44514	124.56402
352.70001	319.52554	0.44569	124.56422
352.79999	319.7323	0.44654	124.56442
352.89999	319.9501	0.4483	124.56463
353	320.17007	0.44806	124.56485
353.10001	320.38077	0.44889	124.56506
353.20001	320.59863	0.45081	124.56526
353.29999	320.81512	0.45079	124.56547
353.39999	321.02286	0.45244	124.56567
353.5	321.2504	0.4534	124.56589
353.60001	321.4639	0.44916	124.5661
353.70001	321.67526	0.44823	124.56631
353.79999	321.88303	0.4509	124.56652
353.89999	322.116	0.44813	124.56673
354	322.31812	0.44823	124.56693
354.10001	322.52817	0.4485	124.56714
354.20001	322.74167	0.45081	124.56734
354.29999	322.95685	0.45072	124.56756
354.39999	323.17188	0.45336	124.56777
354.5	323.38278	0.45164	124.56798
354.60001	323.5928	0.45292	124.56818
354.70001	323.81152	0.45332	124.56839
354.79999	324.01645	0.45332	124.5686
354.89999	324.23254	0.45519	124.5688
355	324.44547	0.45338	124.56903
355.10001	324.65356	0.45341	124.56921
355.20001	324.85022	0.45463	124.56942
355.29999	325.0661	0.45558	124.56963
355.39999	325.28369	0.45586	124.56984
355.5	325.49228	0.45588	124.57005
355.60001	325.70068	0.4576	124.57027
355.70001	325.92584	0.45841	124.57047
355.79999	326.13177	0.45841	124.57069
355.89999	326.34503	0.45869	124.57088
356	326.55746	0.46082	124.57109
356.10001	326.76794	0.46336	124.5713
356.20001	326.98187	0.46341	124.57151
356.29999	327.18552	0.46356	124.57172
356.39999	327.39908	0.46559	124.57194
356.5	327.60968	0.46339	124.57214
356.60001	327.8244	0.46338	124.57234
356.70001	328.02441	0.4625	124.57256
356.79999	328.23849	0.46292	124.57278
356.89999	328.44492	0.46134	124.57297
357	328.65942	0.46353	124.57319
357.10001	328.86884	0.46351	124.57339
357.20001	329.08267	0.46085	124.5736
357.29999	329.29095	0.45911	124.57381
357.39999	329.49902	0.46065	124.57401
357.5	329.70462	0.46179	124.57422
357.60001	329.90363	0.46475	124.57443
357.70001	330.11469	0.46386	124.57463
357.79999	330.32486	0.4642	124.57484
357.89999	330.53531	0.4635	124.57505
358	330.74603	0.46556	124.57526
358.10001	330.96509	0.4687	124.57547
358.20001	331.17773	0.4686	124.57568
358.29999	331.39316	0.46977	124.57589
358.39999	331.59818	0.46873	124.5761
358.5	331.8114	0.46998	124.5763
358.60001	332.01529	0.46856	124.57651
358.70001	332.23227	0.4686	124.57672
358.79999	332.43719	0.46861	124.57693
358.89999	332.65387	0.46955	124.57714
359	332.86386	0.47115	124.57735
359.10001	333.07257	0.47268	124.57756
359.20001	333.28067	0.47148	124.57776
359.29999	333.4827	0.47377	124.57799
359.39999	333.69025	0.47244	124.57819
359.5	333.89868	0.47113	124.5784
359.60001	334.11243	0.47115	124.57861
359.70001	334.31174	0.47315	124.57881
359.79999	334.51614	0.4738	124.57902
359.89999	334.71805	0.47623	124.57923
360	334.91821	0.47624	124.57943
360.10001	335.11893	0.47887	124.57962
360.20001	335.33191	0.48061	124.57985
360.29999	335.53833	0.48064	124.58006
360.39999	335.73682	0.4806	124.58025
360.5	335.94971	0.48089	124.58047
360.60001	336.16934	0.47674	124.58069
360.70001	336.36377	0.47882	124.58089
360.79999	336.57175	0.47886	124.5811
360.89999	336.78061	0.47853	124.58131
361	336.98187	0.48092	124.58151
361.10001	337.18613	0.48265	124.58172
361.20001	337.3941	0.48355	124.58192
361.29999	337.60028	0.48491	124.58215
361.39999	337.81198	0.48411	124.58235
361.5	338.00555	0.48388	124.58256
361.60001	338.21207	0.48651	124.58276
361.70001	338.4086	0.48596	124.58298
361.79999	338.60468	0.48643	124.58318
361.89999	338.81171	0.48643	124.58339
362	339.00592	0.48643	124.5836
362.10001	339.2103	0.48399	124.58382
362.20001	339.40729	0.48645	124.58402
362.29999	339.60699	0.48689	124.58423
362.39999	339.79712	0.48804	124.58442
362.5	339.99286	0.48899	124.58463
362.60001	340.19653	0.48897	124.58483
362.70001	340.39713	0.48897	124.58505
362.79999	340.59775	0.49027	124.58525
362.89999	340.80017	0.4941	124.58547
363	341.0137	0.49407	124.58567
363.10001	341.20215	0.49407	124.58588
363.20001	341.40521	0.49385	124.58611
363.29999	341.60834	0.49407	124.5863
363.39999	341.79242	0.49148	124.58652
363.5	342.00516	0.49418	124.58672
363.60001	342.1976	0.49158	124.58693
363.70001	342.40622	0.49414	124.58715
363.79999	342.58014	0.49284	124.58736
363.89999	342.78873	0.49432	124.58756
364	342.98138	0.4961	124.58778
364.10001	343.18222	0.49915	124.58797
364.20001	343.36456	0.49621	124.58818
364.29999	343.5593	0.49888	124.58839
364.39999	343.75183	0.49915	124.5886
364.5	343.95847	0.49612	124.58881
364.60001	344.14413	0.4965	124.58901
364.70001	344.34064	0.49661	124.58922
364.79999	344.52054	0.49912	124.58943
364.89999	344.70584	0.4991	124.58963
365	344.90863	0.49916	124.58984
365.10001	345.10211	0.49916	124.59005
365.20001	345.30539	0.49916	124.59026
365.29999	345.49515	0.50158	124.59047
365.39999	345.69348	0.5017	124.59068
365.5	345.88626	0.50171	124.59089
365.60001	346.07248	0.50222	124.59109
365.70001	346.27133	0.50428	124.59132
365.79999	346.45831	0.50163	124.59152
365.89999	346.65268	0.50369	124.59172
366	346.84061	0.50316	124.59193
366.10001	347.03253	0.50421	124.59214
366.20001	347.23047	0.50166	124.59235
366.29999	347.41663	0.50264	124.59257
366.39999	347.60043	0.50682	124.59277
366.5	347.77615	0.50511	124.59296
366.60001	347.97281	0.50751	124.59319
366.70001	348.15906	0.50938	124.59339
366.79999	348.34134	0.50863	124.5936
366.89999	348.53107	0.50859	124.59381
367	348.72116	0.51094	124.59402
367.10001	348.90652	0.5114	124.59422
367.20001	349.08557	0.51144	124.59443
367.29999	349.26379	0.51158	124.59464
367.39999	349.45526	0.51173	124.59485
367.5	349.64459	0.51374	124.59505
367.60001	349.82986	0.51292	124.59525
367.70001	350.01401	0.5135	124.59548
367.79999	350.1983	0.5141	124.59568
367.89999	350.38828	0.51457	124.59589
368	350.57184	0.51488	124.5961
368.10001	350.75351	0.51362	124.59631
368.20001	350.9407	0.51323	124.5965
368.29999	351.12683	0.51444	124.59673
368.39999	351.31213	0.51446	124.59694
368.5	351.49152	0.51735	124.59715
368.60001	351.67499	0.51699	124.59735
368.70001	351.85794	0.51512	124.59756
368.79999	352.03372	0.5201	124.59776
368.89999	352.23001	0.52203	124.59798
369	352.39542	0.52056	124.59818
369.10001	352.57867	0.51865	124.59838
369.20001	352.75681	0.52014	124.59861
369.29999	352.92859	0.52216	124.59881
369.39999	353.10886	0.52205	124.59901
369.5	353.27997	0.5196	124.59923
369.60001	353.45212	0.51991	124.59942
369.70001	353.63235	0.51953	124.59963
369.79999	353.81458	0.5219	124.59985
369.89999	353.98764	0.52208	124.60005
370	354.16702	0.52208	124.60026
370.10001	354.34711	0.52208	124.60046
370.20001	354.51898	0.5222	124.60069
370.29999	354.70258	0.524	124.60089
370.39999	354.87769	0.52462	124.6011
370.5	355.05203	0.52463	124.6013
370.60001	355.22021	0.52723	124.60152
370.70001	355.40042	0.52847	124.60172
370.79999	355.57465	0.52717	124.60194
370.89999	355.74249	0.52948	124.60215
371	355.91513	0.52954	124.60236
371.10001	356.07941	0.52715	124.60256
371.20001	356.25131	0.52776	124.60277
371.29999	356.42191	0.52716	124.60297
371.39999	356.58591	0.52983	124.60318
371.5	356.76205	0.53048	124.60339
371.60001	356.91983	0.53375	124.60359
371.70001	357.09314	0.53481	124.60381
371.79999	357.25476	0.53481	124.60401
371.89999	357.4104	0.53705	124.60422
372	357.57538	0.53562	124.60442
372.10001	357.74283	0.53561	124.60464
372.20001	357.92053	0.53475	124.60485
372.29999	358.08508	0.53746	124.60505
372.39999	358.24362	0.536	124.60526
372.5	358.41336	0.54003	124.60547
372.60001	358.57712	0.54222	124.60567
372.70001	358.73813	0.54036	124.6059
372.79999	358.90802	0.53992	124.6061
372.89999	359.06454	0.53979	124.60631
373	359.22495	0.53991	124.60652
373.10001	359.39316	0.53991	124.60672
373.20001	359.54575	0.54259	124.60693
373.29999	359.70773	0.54243	124.60714
373.39999	359.86588	0.54245	124.60735
373.5	360.02127	0.54506	124.60756
373.60001	360.18451	0.545	124.60777
373.70001	360.34357	0.545	124.60798
373.79999	360.495	0.5472	124.60818
373.89999	360.65509	0.54754	124.60839
374	360.80713	0.54755	124.6086
374.10001	360.95407	0.54755	124.60881
374.20001	361.11771	0.54755	124.60902
374.29999	361.26352	0.54755	124.60921
374.39999	361.41507	0.54632	124.60943
374.5	361.56332	0.54499	124.60963
374.60001	361.72598	0.54764	124.60983
374.70001	361.88187	0.54776	124.61005
374.79999	362.03394	0.54862	124.61027
374.89999	362.1835	0.5501	124.61047
375	362.34384	0.55272	124.61068
375.10001	362.50726	0.55035	124.61089
375.20001	362.65271	0.5501	124.61109
375.29999	362.80005	0.5475	124.6113
375.39999	362.94986	0.54755	124.61152
375.5	363.09641	0.54861	124.61172
375.60001	363.23474	0.5501	124.61194
375.70001	363.39349	0.55225	124.61214
375.79999	363.53717	0.55334	124.61234
375.89999	363.6871	0.55264	124.61257
376	363.82852	0.55244	124.61277
376.10001	363.97495	0.55528	124.61298
376.20001	364.1174	0.55295	124.61319
376.29999	364.25424	0.5552	124.6134
376.39999	364.39514	0.55524	124.6136
376.5	364.54089	0.55807	124.61381
376.60001	364.68228	0.56232	124.61401
376.70001	364.81522	0.56051	124.61423
376.79999	364.95267	0.56239	124.61443
376.89999	365.09665	0.5628	124.61463
377	365.23849	0.56286	124.61485
377.10001	365.3735	0.56167	124.61505
377.20001	365.52628	0.5579	124.61525
377.29999	365.6651	0.56	124.61548
377.39999	365.80435	0.56025	124.61568
377.5	365.9357	0.56131	124.61589
377.60001	366.07419	0.56681	124.6161
377.70001	366.21652	0.5681	124.6163
377.79999	366.35474	0.56527	124.61651
377.89999	366.47934	0.56733	124.61672
378	366.61722	0.57002	124.61694
378.10001	366.76602	0.57056	124.61714
378.20001	366.88672	0.57047	124.61736
378.29999	367.0307	0.5711	124.61755
378.39999	367.15872	0.5704	124.61776
378.5	367.28662	0.57149	124.61799
378.60001	367.4245	0.57166	124.61819
378.70001	367.55457	0.57305	124.61839
378.79999	367.67206	0.57567	124.61861
378.89999	367.79889	0.5755	124.61881
379	367.93173	0.5749	124.61901
379.10001	368.05212	0.57542	124.61922
379.20001	368.17029	0.57556	124.61943
379.29999	368.3071	0.57711	124.61964
379.39999	368.43085	0.57708	124.61984
379.5	368.55392	0.57813	124.62005
379.60001	368.68863	0.58054	124.62026
379.70001	368.8136	0.5831	124.62047
379.79999	368.93942	0.58061	124.62067
379.89999	369.05963	0.58068	124.6209
380	369.198	0.5807	124.6211
380.10001	369.311	0.58098	124.62131
380.20001	369.43918	0.58066	124.62151
380.29999	369.56503	0.58074	124.62172
380.39999	369.67972	0.58348	124.62193
380.5	369.80484	0.58356	124.62215
380.60001	369.935	0.58607	124.62235
380.70001	370.04199	0.58586	124.62256
380.79999	370.16309	0.58679	124.62277
380.89999	370.27997	0.58573	124.62297
381	370.40027	0.58575	124.62318
381.10001	370.51144	0.58575	124.62339
381.20001	370.6261	0.58609	124.6236
381.29999	370.74515	0.58623	124.62381
381.39999	370.84592	0.58728	124.62401
381.5	370.96008	0.58855	124.62421
381.60001	371.07498	0.59088	124.62442
381.70001	371.18921	0.58983	124.62463
381.79999	371.30527	0.59091	124.62483
381.89999	371.41669	0.59344	124.62505
382	371.53519	0.59339	124.62527
382.10001	371.6438	0.59339	124.62547
382.20001	371.75714	0.59547	124.62568
382.29999	371.86993	0.59542	124.6259
382.39999	371.98004	0.59593	124.6261
382.5	372.08533	0.59834	124.62631
382.60001	372.19476	0.59646	124.62652
382.70001	372.3027	0.60079	124.62672
382.79999	372.40634	0.60102	124.62693
382.89999	372.51694	0.60291	124.62714
383	372.62189	0.60358	124.62736
383.10001	372.71545	0.60358	124.62756
383.20001	372.82172	0.60098	124.62777
383.29999	372.92804	0.60247	124.62798
383.39999	373.02084	0.601	124.62819
383.5	373.12137	0.60366	124.62839
383.60001	373.21594	0.60357	124.62859
383.70001	373.32083	0.60432	124.62881
383.79999	373.40729	0.60614	124.62901
383.89999	373.51077	0.60612	124.62921
384	373.60199	0.60975	124.62943
384.10001	373.69449	0.61119	124.62963
384.20001	373.79837	0.61292	124.62984
384.29999	373.90482	0.61639	124.63004
384.39999	374.0119	0.61631	124.63026
384.5	374.10208	0.6139	124.63047
384.60001	374.20245	0.61377	124.63068
384.70001	374.29855	0.61664	124.63088
384.79999	374.39194	0.61894	124.63109
384.89999	374.48898	0.61696	124.63132
385	374.57553	0.61879	124.63152
385.10001	374.6698	0.61886	124.63172
385.20001	374.76688	0.61886	124.63194
385.29999	374.86169	0.62135	124.63214
385.39999	374.95541	0.6214	124.63235
385.5	375.0412	0.6214	124.63257
385.60001	375.12692	0.61911	124.63277
385.70001	375.2168	0.61886	124.63299
385.79999	375.30408	0.62148	124.63319
385.89999	375.38568	0.62404	124.63339
386	375.46762	0.62395	124.63361
386.10001	375.56134	0.62458	124.63381
386.20001	375.64377	0.62395	124.63401
386.29999	375.73035	0.62404	124.63422
386.39999	375.80917	0.62652	124.63443
386.5	375.89612	0.62654	124.63464
386.60001	375.98129	0.62883	124.63484
386.70001	376.07614	0.63138	124.63505
386.79999	376.16446	0.6316	124.63527
386.89999	376.2467	0.63356	124.63548
387	376.33517	0.63284	124.63568
387.10001	376.41498	0.6332	124.63589
387.20001	376.48505	0.63415	124.6361
387.29999	376.57675	0.63898	124.6363
387.39999	376.65915	0.63922	124.63652
387.5	376.73831	0.63892	124.63673
387.60001	376.81717	0.64101	124.63693
387.70001	376.90604	0.63921	124.63714
387.79999	376.97644	0.63923	124.63735
387.89999	377.04843	0.63923	124.63756
388	377.12021	0.64383	124.63776
388.10001	377.19931	0.64232	124.63797
388.20001	377.27167	0.64426	124.63819
388.29999	377.35657	0.64431	124.6384
388.39999	377.41968	0.64668	124.6386
388.5	377.49429	0.64174	124.63881
388.60001	377.56882	0.643	124.63902
388.70001	377.63861	0.64656	124.63921
388.79999	377.71115	0.65167	124.63941
388.89999	377.78162	0.65294	124.63964
389	377.86459	0.65203	124.63985
389.10001	377.93723	0.65453	124.64005
389.20001	378.01886	0.65432	124.64026
389.29999	378.09412	0.65192	124.64048
389.39999	378.15726	0.65461	124.64069
389.5	378.23199	0.6571	124.64089
389.60001	378.30051	0.65705	124.6411
389.70001	378.37466	0.65524	124.6413
389.79999	378.44357	0.65886	124.64152
389.89999	378.5202	0.66029	124.64172
390	378.58456	0.6615	124.64194
390.10001	378.65536	0.66216	124.64215
390.20001	378.71378	0.66178	124.64236
390.29999	378.78131	0.66284	124.64256
390.39999	378.84448	0.66304	124.64277
390.5	378.92383	0.66472	124.64297
390.60001	378.98221	0.66733	124.64318
390.70001	379.04977	0.66554	124.64339
390.79999	379.10883	0.66731	124.64359
390.89999	379.17984	0.66724	124.6438
391	379.23151	0.66721	124.64401
391.10001	379.29129	0.66981	124.64421
391.20001	379.35992	0.66979	124.64442
391.29999	379.42523	0.66994	124.64463
391.39999	379.49594	0.67176	124.64484
391.5	379.55798	0.67497	124.64506
391.60001	379.62112	0.67505	124.64526
391.70001	379.69623	0.67724	124.64548
391.79999	379.75943	0.68083	124.64568
391.89999	379.82632	0.68046	124.64588
392	379.88055	0.68259	124.6461
392.10001	379.9404	0.68246	124.64631
392.20001	380.00797	0.68019	124.64651
392.29999	380.06223	0.68256	124.64672
392.39999	380.12433	0.6851	124.64693
392.5	380.18768	0.68305	124.64713
392.60001	380.24335	0.68772	124.64734
392.70001	380.30432	0.69013	124.64757
392.79999	380.35571	0.69107	124.64777
392.89999	380.41901	0.68928	124.64797
393	380.47964	0.68759	124.64819
393.10001	380.52301	0.68917	124.64839
393.20001	380.59155	0.69114	124.6486
393.29999	380.64337	0.6919	124.6488
393.39999	380.69177	0.69276	124.64901
393.5	380.74756	0.69618	124.64922
393.60001	380.78876	0.69685	124.64943
393.70001	380.8555	0.69778	124.64963
393.79999	380.9183	0.69528	124.64984
393.89999	380.98721	0.69526	124.65006
394	381.03299	0.69527	124.65026
394.10001	381.09622	0.70012	124.65047
394.20001	381.151	0.70267	124.65068
394.29999	381.2049	0.70106	124.65089
394.39999	381.26059	0.70299	124.65109
394.5	381.3096	0.70546	124.6513
394.60001	381.36258	0.70286	124.65152
394.70001	381.4126	0.70501	124.65173
394.79999	381.47598	0.707	124.65193
394.89999	381.52567	0.71032	124.65214
395	381.58456	0.71055	124.65235
395.10001	381.63321	0.71304	124.65256
395.20001	381.68359	0.71308	124.65277
395.29999	381.73956	0.7139	124.65298
395.39999	381.78983	0.71811	124.65319
395.5	381.83508	0.71752	124.65339
395.60001	381.89163	0.72083	124.6536
395.70001	381.94354	0.72073	124.65381
395.79999	381.98749	0.71989	124.65401
395.89999	382.04218	0.72072	124.65422
396	382.08926	0.72338	124.65443
396.10001	382.15054	0.72412	124.65463
396.20001	382.19226	0.7259	124.65485
396.29999	382.2551	0.72582	124.65504
396.39999	382.30179	0.72783	124.65525
396.5	382.35513	0.73034	124.65548
396.60001	382.41037	0.72607	124.65568
396.70001	382.45865	0.72889	124.65588
396.79999	382.51013	0.72876	124.6561
396.89999	382.56598	0.73358	124.6563
397	382.61697	0.73345	124.65651
397.10001	382.67068	0.73311	124.65673
397.20001	382.73239	0.73353	124.65694
397.29999	382.77875	0.73593	124.65715
397.39999	382.82971	0.73603	124.65735
397.5	382.87476	0.73601	124.65755
397.60001	382.92578	0.73862	124.65777
397.70001	382.97018	0.73868	124.65797
397.79999	383.03064	0.74112	124.65819
397.89999	383.07236	0.74374	124.6584
398	383.11508	0.7463	124.65861
398.10001	383.16922	0.74645	124.65881
398.20001	383.21518	0.74629	124.65902
398.29999	383.26279	0.74628	124.65923
398.39999	383.30841	0.74832	124.65942
398.5	383.36548	0.74855	124.65964
398.60001	383.41446	0.74861	124.65984
398.70001	383.4718	0.74902	124.66005
398.79999	383.5217	0.75097	124.66026
398.89999	383.56671	0.75303	124.66046
399	383.62387	0.75638	124.66068
399.10001	383.66855	0.75638	124.66088
399.20001	383.72058	0.75653	124.6611
399.29999	383.78571	0.75895	124.6613
399.39999	383.82544	0.75731	124.66151
399.5	383.87155	0.75908	124.66172
399.60001	383.92584	0.76219	124.66193
399.70001	383.97141	0.76403	124.66215
399.79999	384.02512	0.76626	124.66235
399.89999	384.0675	0.76785	124.66256
400	384.12555	0.76911	124.66277
400.10001	384.16431	0.76911	124.66297
400.20001	384.21277	0.76911	124.66319
400.29999	384.25537	0.77062	124.66339
400.39999	384.30774	0.77083	124.6636
400.5	384.34995	0.77148	124.6638
400.60001	384.39252	0.77427	124.66401
400.70001	384.43753	0.77532	124.66422
400.79999	384.48141	0.77679	124.66442
400.89999	384.53613	0.77689	124.66463
401	384.58932	0.77996	124.66483
401.10001	384.64478	0.78104	124.66505
401.20001	384.69135	0.77971	124.66526
401.29999	384.73572	0.7793	124.66547
401.39999	384.78711	0.78183	124.66568
401.5	384.84253	0.78438	124.66589
401.60001	384.90363	0.78483	124.6661
401.70001	384.94247	0.78566	124.66631
401.79999	384.99667	0.7865	124.66652
401.89999	385.04416	0.78844	124.66672
402	385.08353	0.78949	124.66693
402.10001	385.13492	0.78947	124.66714
402.20001	385.18011	0.78949	124.66735
402.29999	385.22269	0.78911	124.66756
402.39999	385.27896	0.7886	124.66777
402.5	385.31644	0.78963	124.66798
402.60001	385.35202	0.79206	124.66818
402.70001	385.41656	0.79337	124.66839
402.79999	385.45856	0.79713	124.66859
402.89999	385.5033	0.79952	124.66881
403	385.53909	0.80192	124.66901
403.10001	385.59302	0.80219	124.66922
403.20001	385.63412	0.79964	124.66943
403.29999	385.68692	0.80127	124.66963
403.39999	385.73126	0.80481	124.66984
403.5	385.7847	0.80591	124.67004
403.60001	385.83456	0.80474	124.67027
403.70001	385.88544	0.80734	124.67048
403.79999	385.93436	0.8099	124.67068
403.89999	385.98898	0.80981	124.67088
404	386.04224	0.81251	124.67111
404.10001	386.08588	0.81404	124.67131
404.20001	386.13559	0.81496	124.67152
404.29999	386.18552	0.81745	124.67173
404.39999	386.23077	0.8177	124.67194
404.5	386.27484	0.81762	124.67213
404.60001	386.31714	0.8175	124.67235
404.70001	386.36615	0.81787	124.67257
404.79999	386.41724	0.82008	124.67277
404.89999	386.45413	0.82125	124.67298
405	386.4996	0.82519	124.67319
405.10001	386.54489	0.82661	124.67339
405.20001	386.58548	0.82504	124.6736
405.29999	386.62799	0.82529	124.67381
405.39999	386.66373	0.82773	124.674
405.5	386.71219	0.82769	124.67422
405.60001	386.76773	0.82932	124.67442
405.70001	386.80823	0.83262	124.67464
405.79999	386.86746	0.83282	124.67484
405.89999	386.91022	0.83017	124.67505
406	386.96439	0.83275	124.67525
406.10001	387.00348	0.83417	124.67546
406.20001	387.06555	0.83533	124.67568
406.29999	387.10938	0.83792	124.6759
406.39999	387.15213	0.83797	124.67609
406.5	387.20233	0.83787	124.67632
406.60001	387.24506	0.83932	124.67653
406.70001	387.30026	0.83786	124.67673
406.79999	387.34006	0.83788	124.67693
406.89999	387.37772	0.83742	124.67715
407	387.42206	0.83896	124.67735
407.10001	387.45911	0.84224	124.67755
407.20001	387.51013	0.84562	124.67776
407.29999	387.55826	0.84791	124.67799
407.39999	387.5921	0.84806	124.67818
407.5	387.64154	0.85021	124.67838
407.60001	387.68735	0.85077	124.6786
407.70001	387.72873	0.85149	124.67879
407.79999	387.76862	0.85304	124.67901
407.89999	387.80862	0.85573	124.67921
408	387.86539	0.85667	124.67941
408.10001	387.90723	0.85685	124.67964
408.20001	387.95657	0.85401	124.67985
408.29999	387.99649	0.85574	124.68005
408.39999	388.05011	0.85793	124.68026
408.5	388.09766	0.85831	124.68047
408.60001	388.1586	0.85887	124.68068
408.70001	388.20425	0.86028	124.68089
408.79999	388.24615	0.861	124.6811
408.89999	388.29196	0.8634	124.68131
409	388.33365	0.866	124.68151
409.10001	388.37793	0.86712	124.68172
409.20001	388.42651	0.86844	124.68193
409.29999	388.47177	0.87091	124.68214
409.39999	388.50366	0.87098	124.68235
409.5	388.5578	0.87098	124.68256
409.60001	388.60825	0.87098	124.68277
409.70001	388.65024	0.87151	124.68297
409.79999	388.68652	0.87188	124.68318
409.89999	388.73941	0.8756	124.68339
410	388.78125	0.8758	124.68359
410.10001	388.82056	0.87709	124.6838
410.20001	388.85321	0.87863	124.68401
410.29999	388.90311	0.88115	124.68421
410.39999	388.95703	0.88114	124.68443
410.5	388.99677	0.88379	124.68462
410.60001	389.04355	0.88418	124.68483
410.70001	389.10248	0.88372	124.68506
410.79999	389.14655	0.88418	124.68526
410.89999	389.2016	0.8841	124.68546
411	389.24631	0.88628	124.68569
411.10001	389.29245	0.88883	124.6859
411.20001	389.32687	0.88825	124.6861
411.29999	389.37592	0.88885	124.68631
411.39999	389.42175	0.8895	124.68652
411.5	389.46512	0.89138	124.68672
411.60001	389.51212	0.89332	124.68693
411.70001	389.56241	0.89378	124.68715
411.79999	389.6066	0.8962	124.68736
411.89999	389.64841	0.89645	124.68757
412	389.69141	0.89645	124.68777
412.10001	389.73264	0.89645	124.68798
412.20001	389.76492	0.89906	124.68819
412.29999	389.81476	0.90023	124.68839
412.39999	389.85825	0.9024	124.6886
412.5	389.8959	0.90411	124.6888
412.60001	389.93347	0.90585	124.68901
412.70001	389.98001	0.90663	124.68922
412.79999	390.02267	0.90375	124.68942
412.89999	390.07272	0.90674	124.68963
413	390.11932	0.90664	124.68984
413.10001	390.1713	0.90928	124.69006
413.20001	390.21701	0.91178	124.69026
413.29999	390.26297	0.91425	124.69048
413.39999	390.31155	0.91427	124.69068
413.5	390.35413	0.91588	124.69088
413.60001	390.3902	0.91426	124.69109
413.70001	390.43539	0.91693	124.6913
413.79999	390.48584	0.91682	124.69151
413.89999	390.53464	0.91682	124.69173
414	390.57849	0.91912	124.69193
414.10001	390.62857	0.91937	124.69214
414.20001	390.66629	0.91683	124.69234
414.29999	390.71149	0.9193	124.69255
414.39999	390.76031	0.92202	124.69277
414.5	390.79428	0.92529	124.69299
414.60001	390.83121	0.92445	124.69317
414.70001	390.88568	0.92568	124.69339
414.79999	390.93378	0.92457	124.6936
414.89999	390.96216	0.92447	124.69381
415	391.00735	0.92575	124.69402
415.10001	391.04886	0.92506	124.69422
415.20001	391.10172	0.92809	124.69443
415.29999	391.1416	0.92952	124.69464
415.39999	391.18829	0.93	124.69484
415.5	391.23694	0.93221	124.69505
415.60001	391.28979	0.93398	124.69527
415.70001	391.34247	0.9373	124.69547
415.79999	391.37408	0.93725	124.69568
415.89999	391.42017	0.93985	124.69589
416	391.45709	0.93974	124.6961
416.10001	391.51471	0.93838	124.6963
416.20001	391.55841	0.93903	124.69651
416.29999	391.60321	0.94115	124.69673
416.39999	391.64578	0.94486	124.69694
416.5	391.69022	0.94342	124.69714
416.60001	391.72858	0.94454	124.69735
416.70001	391.77914	0.94487	124.69756
416.79999	391.81583	0.94788	124.69778
416.89999	391.86325	0.94876	124.69798
417	391.8996	0.95259	124.69817
417.10001	391.93845	0.9527	124.6984
417.20001	391.98795	0.95248	124.6986
417.29999	392.02808	0.95509	124.69881
417.39999	392.05179	0.95514	124.69901
417.5	392.10303	0.95753	124.69921
417.60001	392.14276	0.95757	124.69942
417.70001	392.19214	0.95811	124.69962
417.79999	392.23892	0.95755	124.69984
417.89999	392.29221	0.96022	124.70006
418	392.33005	0.96012	124.70026
418.10001	392.37567	0.96012	124.70046
418.20001	392.42294	0.96105	124.70068
418.29999	392.46741	0.96272	124.70089
418.39999	392.51608	0.96266	124.7011
418.5	392.55084	0.96266	124.70131
418.60001	392.59756	0.96335	124.70152
418.70001	392.64587	0.9652	124.70171
418.79999	392.68228	0.96771	124.70194
418.89999	392.72845	0.97034	124.70215
419	392.7619	0.97222	124.70235
419.10001	392.81168	0.97285	124.70256
419.20001	392.85553	0.97336	124.70277
419.29999	392.89319	0.97528	124.70297
419.39999	392.93195	0.9754	124.70319
419.5	392.9758	0.97705	124.70338
419.60001	393.00714	0.97993	124.70359
419.70001	393.04733	0.9787	124.7038
419.79999	393.08972	0.98034	124.70401
419.89999	393.13162	0.98049	124.70421
420	393.17276	0.98314	124.70442
420.10001	393.22211	0.98536	124.70463
420.20001	393.26596	0.98564	124.70483
420.29999	393.30753	0.98558	124.70506
420.39999	393.3681	0.98564	124.70526
420.5	393.40649	0.98814	124.70547
420.60001	393.45047	0.98812	124.70569
420.70001	393.49426	0.98839	124.70589
420.79999	393.54117	0.99071	124.70611
420.89999	393.57437	0.99239	124.70631
421	393.62854	0.99322	124.70651
421.10001	393.67365	0.99321	124.70673
421.20001	393.71371	0.99536	124.70695
421.29999	393.75662	0.99577	124.70715
421.39999	393.79041	0.99837	124.70736
421.5	393.8338	0.99832	124.70757
421.60001	393.88098	0.99621	124.70777
421.70001	393.91568	0.99653	124.70798
421.79999	393.95038	0.99742	124.70818
421.89999	393.99786	0.99949	124.70839
422	394.03357	1.00169	124.7086
422.10001	394.07779	1.00142	124.7088
422.20001	394.11261	1.00286	124.70901
422.29999	394.15359	1.00606	124.70922
422.39999	394.20404	1.00596	124.70943
422.5	394.24457	1.00592	124.70963
422.60001	394.29489	1.00928	124.70984
422.70001	394.3454	1.01106	124.71006
422.79999	394.39148	1.01105	124.71026
422.89999	394.43015	1.01023	124.71047
423	394.47839	1.00849	124.71068
423.10001	394.51941	1.01202	124.71088
423.20001	394.55841	1.01099	124.71109
423.29999	394.60681	1.01414	124.7113
423.39999	394.64755	1.01874	124.71152
423.5	394.70038	1.01991	124.71173
423.60001	394.74155	1.02124	124.71193
423.70001	394.76865	1.02124	124.71214
423.79999	394.81726	1.0238	124.71236
423.89999	394.85245	1.02627	124.71256
424	394.89511	1.02633	124.71276
424.10001	394.94022	1.02601	124.71298
424.20001	394.98297	1.02569	124.71319
424.29999	395.02145	1.02388	124.71339
424.39999	395.05692	1.02375	124.7136
424.5	395.10358	1.02635	124.71381
424.60001	395.13013	1.02805	124.714
424.70001	395.18402	1.03115	124.71422
424.79999	395.22375	1.0329	124.71442
424.89999	395.26639	1.03139	124.71464
425	395.31332	1.03308	124.71484
425.10001	395.36093	1.03335	124.71504
425.20001	395.41159	1.03397	124.71527
425.29999	395.45697	1.03647	124.71548
425.39999	395.4935	1.03655	124.71568
425.5	395.53833	1.03735	124.71589
425.60001	395.58636	1.03864	124.71611
425.70001	395.63577	1.03907	124.71632
425.79999	395.67242	1.03907	124.71652
425.89999	395.71732	1.04171	124.71673
426	395.76111	1.04292	124.71693
426.10001	395.80084	1.04417	124.71715
426.20001	395.84152	1.04442	124.71735
426.29999	395.88034	1.04734	124.71755
426.39999	395.92508	1.04926	124.71777
426.5	395.97003	1.04757	124.71797
426.60001	396.01089	1.05041	124.71818
426.70001	396.04248	1.05183	124.7184
426.79999	396.08865	1.05182	124.71859
426.89999	396.12582	1.05272	124.7188
427	396.16757	1.0521	124.719
427.10001	396.21201	1.05462	124.71922
427.20001	396.25314	1.05692	124.71942
427.29999	396.2923	1.05951	124.71964
427.39999	396.34439	1.05754	124.71984
427.5	396.38065	1.062	124.72005
427.60001	396.42752	1.06417	124.72026
427.70001	396.47684	1.06453	124.72047
427.79999	396.52344	1.06415	124.72069
427.89999	396.56204	1.06457	124.72089
428	396.59583	1.06453	124.7211
428.10001	396.63995	1.06479	124.72131
428.20001	396.68579	1.06715	124.72151
428.29999	396.72842	1.06708	124.72172
428.39999	396.76517	1.06967	124.72193
428.5	396.80389	1.06975	124.72215
428.60001	396.85281	1.07267	124.72235
428.70001	396.89502	1.07318	124.72256
428.79999	396.93289	1.07398	124.72276
428.89999	396.9697	1.07512	124.72297
429	397.013	1.07826	124.72318
429.10001	397.05774	1.07637	124.72339
429.20001	397.08707	1.0747	124.72359
429.29999	397.12219	1.07629	124.7238
429.39999	397.16953	1.07934	124.72401
429.5	397.21082	1.08232	124.72422
429.60001	397.25369	1.085	124.72442
429.70001	397.29736	1.08491	124.72462
429.79999	397.33878	1.08491	124.72485
429.89999	397.38647	1.0874	124.72506
430	397.42896	1.08745	124.72526
430.10001	397.46912	1.09011	124.72547
430.20001	397.51324	1.09069	124.72569
430.29999	397.56396	1.09046	124.72589
430.39999	397.59805	1.09244	124.7261
430.5	397.63348	1.09293	124.72631
430.60001	397.68372	1.09763	124.72652
430.70001	397.71957	1.0942	124.72672
430.79999	397.76031	1.09261	124.72693
430.89999	397.79657	1.09659	124.72713
431	397.84451	1.09735	124.72736
431.10001	397.87186	1.09907	124.72755
431.20001	397.92056	1.10022	124.72777
431.29999	397.9613	1.10166	124.72798
431.39999	398.00327	1.10272	124.72818
431.5	398.0426	1.1026	124.72839
431.60001	398.07733	1.10538	124.7286
431.70001	398.10367	1.10396	124.72881
431.79999	398.14905	1.10469	124.729
431.89999	398.1832	1.10457	124.72922
432	398.2359	1.10479	124.72942
432.10001	398.27557	1.10528	124.72963
432.20001	398.32541	1.10964	124.72985
432.29999	398.36298	1.11037	124.73006
432.39999	398.40405	1.11036	124.73027
432.5	398.4567	1.11038	124.73048
432.60001	398.49603	1.11249	124.73067
432.70001	398.53027	1.1173	124.73089
432.79999	398.57556	1.12005	124.73109
432.89999	398.60815	1.12063	124.73131
433	398.65958	1.11806	124.73152
433.10001	398.70267	1.11799	124.73173
433.20001	398.73257	1.119	124.73193
433.29999	398.77567	1.12217	124.73214
433.39999	398.81857	1.12053	124.73235
433.5	398.86401	1.12252	124.73255
433.60001	398.89331	1.12573	124.73277
433.70001	398.94974	1.12551	124.73298
433.79999	398.98709	1.12535	124.73318
433.89999	399.02078	1.12517	124.7334
434	399.05127	1.12566	124.7336
434.10001	399.08633	1.12771	124.73379
434.20001	399.13412	1.13129	124.73402
434.29999	399.1662	1.13223	124.73422
434.39999	399.22125	1.1333	124.73443
434.5	399.26132	1.13438	124.73463
434.60001	399.30963	1.13516	124.73484
434.70001	399.34879	1.13591	124.73505
434.79999	399.39185	1.13846	124.73527
434.89999	399.42615	1.13836	124.73547
435	399.47192	1.14024	124.73568
435.10001	399.52176	1.14051	124.73589
435.20001	399.56311	1.14096	124.73609
435.29999	399.59665	1.14308	124.73631
435.39999	399.64285	1.14355	124.73651
435.5	399.67844	1.14595	124.73672
435.60001	399.72629	1.14571	124.73694
435.70001	399.77234	1.1499	124.73714
435.79999	399.79611	1.15206	124.73735
435.89999	399.85052	1.15367	124.73756
436	399.89182	1.15598	124.73778
436.10001	399.92847	1.15617	124.73797
436.20001	399.97141	1.1557	124.7382
436.29999	400.00684	1.15366	124.7384
436.39999	400.04837	1.15602	124.7386
436.5	400.07419	1.15762	124.73882
436.60001	400.10669	1.16354	124.73902
436.70001	400.15573	1.16124	124.7392
436.79999	400.18195	1.16322	124.73943
436.89999	400.23999	1.16286	124.73964
437	400.27881	1.16133	124.73985
437.10001	400.32123	1.16131	124.74005
437.20001	400.36972	1.16395	124.74026
437.29999	400.40585	1.16528	124.74048
437.39999	400.46048	1.16816	124.74068
437.5	400.49509	1.16461	124.74089
437.60001	400.54373	1.16671	124.7411
437.70001	400.57983	1.16897	124.74131
437.79999	400.6207	1.16895	124.74151
437.89999	400.66858	1.17155	124.74171
438	400.70181	1.17309	124.74194
438.10001	400.74026	1.17404	124.74215
438.20001	400.78696	1.17533	124.74235
438.29999	400.81912	1.17661	124.74256
438.39999	400.85999	1.1766	124.74277
438.5	400.89349	1.17874	124.74298
438.60001	400.93448	1.17901	124.74318
438.70001	400.97675	1.17915	124.7434
438.79999	401.01254	1.18179	124.7436
438.89999	401.04788	1.18168	124.7438
439	401.08047	1.18168	124.744
439.10001	401.12537	1.18426	124.74422
439.20001	401.17035	1.18165	124.74442
439.29999	401.20831	1.18368	124.74463
439.39999	401.25516	1.1866	124.74485
439.5	401.29883	1.18865	124.74506
439.60001	401.34219	1.18932	124.74526
439.70001	401.38873	1.19295	124.74548
439.79999	401.43253	1.19442	124.74567
439.89999	401.47214	1.19905	124.7459
440	401.51666	1.19951	124.7461
440.10001	401.55051	1.19945	124.74631
440.14099	401.56885	1.20002	124.74639
440.142	401.56924	1.20005	124.74639
440.242	402.39838	1.20208	124.74712
440.34201	408.00162	1.20255	124.75184
440.44199	407.33481	1.20999	124.7552
440.54199	404.56351	1.2628	124.75861
440.642	404.39508	1.28293	124.76191
440.742	404.7749	1.30026	124.76522
440.84201	405.27811	1.33573	124.76862
440.94199	405.53281	1.34722	124.7719
441.04199	405.79718	1.36144	124.77522
441.142	406.2063	1.38461	124.77862
441.242	406.45203	1.40274	124.78187
441.34201	406.82718	1.41745	124.78521
441.44199	407.30765	1.43852	124.78863
441.54199	406.75311	1.45689	124.79179
441.642	408.14572	1.47352	124.79521
441.742	408.97687	1.48932	124.79861
441.84201	409.39774	1.50327	124.8019
441.94199	409.74014	1.51914	124.80521
442.04199	410.25751	1.533	124.80861
442.142	410.66022	1.54957	124.8119
442.242	411.10037	1.56508	124.81521
442.34201	411.73724	1.58454	124.81863
442.44199	412.15881	1.60551	124.82191
442.54199	412.56207	1.62331	124.8252
442.642	413.18405	1.64041	124.82861
442.742	413.64783	1.65813	124.83191
442.84201	414.07449	1.67609	124.8352
442.94199	414.68597	1.69202	124.83861
443.04199	415.16949	1.70869	124.8419
443.142	415.63434	1.72886	124.84522
443.242	416.24298	1.74475	124.84863
443.34201	416.66919	1.76053	124.85191
443.44199	417.14172	1.77724	124.85521
443.54199	417.7601	1.79574	124.85862
443.642	418.2038	1.81099	124.86189
443.742	418.69012	1.82861	124.86519
443.84201	419.34134	1.84695	124.86862
443.94199	419.81879	1.86493	124.87192
444.04199	420.25821	1.88283	124.87521
444.142	420.83707	1.8981	124.87861
444.242	421.32065	1.91316	124.88191
444.34201	421.7645	1.92519	124.88521
444.44199	422.38022	1.94032	124.8886
444.54199	422.8869	1.95839	124.89189
444.642	423.35315	1.97783	124.89522
444.742	423.97565	1.99465	124.89862
444.84201	424.41138	2.01325	124.90192
444.94199	424.82687	2.02795	124.9052
445.04199	425.43558	2.04323	124.90861
445.142	425.93066	2.05966	124.9119
445.242	426.39609	2.07641	124.9152
445.34201	426.99826	2.09393	124.9186
445.44199	427.46362	2.10982	124.92191
445.54199	427.91797	2.12708	124.92522
445.642	428.48431	2.14415	124.92861
445.742	428.92035	2.16432	124.9319
445.84201	429.39618	2.1833	124.9352
445.94199	430.01804	2.20042	124.93861
446.04199	430.50729	2.21689	124.9419
446.142	430.95758	2.23158	124.94519
446.242	431.55054	2.24919	124.94862
446.34201	432.01199	2.26433	124.95193
446.44199	432.42462	2.28118	124.95523
446.54199	432.98358	2.29599	124.95859
446.642	433.48819	2.3117	124.96191
446.742	433.95618	2.32938	124.9652
446.84201	434.53418	2.34749	124.9686
446.94199	434.98245	2.36503	124.97189
447.04199	435.40918	2.38167	124.9752
447.142	435.99121	2.40162	124.97861
447.242	436.45059	2.41739	124.98193
447.34201	436.8764	2.43402	124.9852
447.44199	437.48587	2.45216	124.9886
447.54199	437.9903	2.46785	124.99191
447.642	438.41208	2.48502	124.9952
447.742	438.94632	2.50206	124.99859
447.84201	439.41251	2.52011	125.00192
447.94199	439.84366	2.53855	125.00523
448.04199	440.40417	2.55775	125.0086
448.142	440.88205	2.57425	125.01191
448.242	441.33463	2.58939	125.01521
448.34201	441.90363	2.60743	125.0186
448.44199	442.35037	2.62494	125.0219
448.54199	442.74649	2.64256	125.02522
448.642	443.30432	2.65981	125.02859
448.742	443.80624	2.67544	125.03194
448.84201	444.23474	2.69136	125.03521
448.94199	444.78604	2.70884	125.0386
449.04199	445.27588	2.72438	125.04193
449.142	445.69131	2.74024	125.04521
449.242	446.22238	2.75799	125.04859
449.34201	446.69138	2.77421	125.05192
449.44199	447.09537	2.7932	125.05521
449.54199	447.6561	2.80967	125.05859
449.642	448.16211	2.82902	125.06194
449.742	448.53162	2.84582	125.06521
449.84201	449.03168	2.86046	125.06857
449.94199	449.54724	2.87612	125.07193
450.04199	449.94977	2.89332	125.0752
450.142	450.43811	2.91165	125.07856
450.242	450.98663	2.92621	125.08192
450.34201	451.43918	2.94138	125.08524
450.44199	451.93039	2.95924	125.08858
450.54199	452.39597	2.97511	125.09193
450.642	452.79037	2.99114	125.09521
450.742	453.26547	3.00815	125.09857
450.84201	453.76437	3.02696	125.10192
450.94199	454.19797	3.04348	125.1052
451.04199	454.68784	3.05956	125.10856
451.142	455.23782	3.07904	125.11195
451.242	455.63251	3.0957	125.11523
451.34201	456.06729	3.11259	125.11857
451.44199	456.5733	3.12702	125.12193
451.54199	456.98874	3.14407	125.12521
451.642	457.47171	3.16158	125.12856
451.742	458.01239	3.17779	125.13194
451.84201	458.40866	3.19766	125.13522
451.94199	458.87659	3.21618	125.13858
452.04199	459.37372	3.23364	125.14194
452.142	459.72076	3.25044	125.14521
452.242	460.18411	3.26864	125.14855
452.34201	460.72784	3.28623	125.15193
452.44199	461.16724	3.30357	125.15521
452.54199	461.63007	3.32229	125.15856
452.642	462.11047	3.33887	125.16193
452.742	462.53165	3.35648	125.16524
452.84201	462.97385	3.37427	125.16858
452.94199	463.44003	3.38931	125.17193
453.04199	463.86176	3.40469	125.17521
453.142	464.34201	3.42149	125.17856
453.242	464.86679	3.4398	125.18195
453.34201	465.24884	3.45529	125.18522
453.44199	465.67062	3.4693	125.18856
453.54199	466.19971	3.48611	125.19196
453.642	466.55399	3.50341	125.19524
453.742	466.98755	3.51879	125.19854
453.84201	467.53455	3.53398	125.20193
453.94199	467.94937	3.55044	125.20522
454.04199	468.40375	3.56746	125.20856
454.142	468.89801	3.58407	125.21194
454.242	469.27713	3.60172	125.21523
454.34201	469.71347	3.61994	125.21857
454.44199	470.20709	3.63657	125.22194
454.54199	470.60529	3.65343	125.22522
454.642	471.03244	3.67177	125.22854
454.742	471.57333	3.68837	125.23193
454.84201	471.94083	3.70622	125.23523
454.94199	472.34857	3.72153	125.23857
455.04199	472.82602	3.73511	125.24194
455.142	473.25494	3.75153	125.24525
455.242	473.67288	3.76671	125.24855
455.34201	474.18826	3.78336	125.25193
455.44199	474.57959	3.8004	125.25521
455.54199	474.98871	3.81808	125.25855
455.642	475.52405	3.83407	125.26193
455.742	475.89752	3.8504	125.26524
455.84201	476.25824	3.86797	125.26855
455.94199	476.80603	3.88471	125.27195
456.04199	477.22702	3.90413	125.27525
456.142	477.59799	3.92102	125.27855
456.242	478.0853	3.94072	125.28193
456.34201	478.48483	3.95843	125.28524
456.44199	478.87946	3.97652	125.28856
456.54199	479.35962	3.9948	125.29195
456.642	479.76593	4.0098	125.29522
456.742	480.1937	4.02918	125.29856
456.84201	480.68802	4.04584	125.30196
456.94199	481.0571	4.06196	125.30524
457.04199	481.41211	4.07971	125.30853
457.142	481.93829	4.09418	125.31193
457.242	482.32443	4.10996	125.31523
457.34201	482.72256	4.12607	125.31853
457.44199	483.24408	4.14107	125.32194
457.54199	483.64557	4.15601	125.32525
457.642	484.0036	4.17267	125.32855
457.742	484.48233	4.19188	125.33194
457.84201	484.84061	4.20866	125.33523
457.94199	485.1998	4.22435	125.33854
458.04199	485.73059	4.24268	125.34193
458.142	486.16412	4.26302	125.34525
458.242	486.49014	4.2797	125.34853
458.34201	487.02841	4.29661	125.35197
458.44199	487.38333	4.31439	125.35526
458.54199	487.72098	4.33358	125.35855
458.642	488.18787	4.3477	125.36191
458.742	488.60046	4.36038	125.36523
458.84201	489.00998	4.37772	125.36855
458.94199	489.50876	4.39645	125.37193
459.04199	489.87375	4.41577	125.37524
459.142	490.23868	4.43223	125.37855
459.242	490.7063	4.44694	125.38194
459.34201	491.07556	4.46289	125.38525
459.44199	491.40085	4.48304	125.38855
459.54199	491.9024	4.50234	125.39191
459.642	492.35107	4.52067	125.39526
459.742	492.69644	4.53804	125.39854
459.84201	493.14819	4.55474	125.40192
459.94199	493.55054	4.57236	125.40527
460.04199	493.89111	4.58954	125.40858
460.142	494.31326	4.60798	125.41191
460.242	494.72021	4.6236	125.41524
460.34201	495.08536	4.64269	125.41851
460.44199	495.58356	4.66002	125.42193
460.54199	496.00003	4.67858	125.42526
460.642	496.27945	4.69817	125.42853
460.742	496.7442	4.71544	125.43192
460.84201	497.1442	4.73572	125.43528
460.94199	497.45251	4.75288	125.43854
461.04199	497.93057	4.77041	125.44191
461.142	498.35718	4.78782	125.44524
461.242	498.69266	4.80586	125.44854
461.34201	499.13245	4.8226	125.45192
461.44199	499.52255	4.83987	125.45526
461.54199	499.83594	4.85854	125.45856
461.642	500.2637	4.87734	125.46191
461.742	500.71631	4.89473	125.46526
461.84201	501.02515	4.91122	125.46852
461.94199	501.47885	4.92867	125.47191
462.04199	501.92389	4.94563	125.47527
462.142	502.23267	4.96292	125.47857
462.242	502.61932	4.98154	125.48192
462.34201	503.02356	4.99865	125.48527
462.44199	503.36484	5.01457	125.48853
462.54199	503.83832	5.03327	125.49192
462.642	504.2659	5.04847	125.49525
462.742	504.55713	5.06442	125.49854
462.84201	504.96237	5.08293	125.50191
462.94199	505.3725	5.10036	125.50527
463.04199	505.63943	5.1158	125.50854
463.142	506.07333	5.13321	125.5119
463.242	506.53464	5.1496	125.51527
463.34201	506.85345	5.16928	125.51855
463.44199	507.25482	5.1856	125.5219
463.54199	507.63834	5.20098	125.52525
463.642	507.93726	5.21863	125.52856
463.742	508.33383	5.23877	125.53191
463.84201	508.75256	5.25733	125.53526
463.94199	509.08282	5.2765	125.53854
464.04199	509.42831	5.29568	125.54192
464.142	509.13049	5.31389	125.54525
464.242	509.85187	5.33007	125.54855
464.34201	510.47134	5.34482	125.5519
464.44199	511.05472	5.36226	125.55526
464.54199	511.44128	5.37929	125.55856
464.642	511.87247	5.39588	125.56189
464.742	512.29926	5.41343	125.56528
464.84201	512.55627	5.42913	125.56855
464.94199	512.87177	5.44489	125.57191
465.04199	513.23981	5.46065	125.57527
465.142	513.45959	5.47783	125.57854
465.242	513.84949	5.49403	125.58189
465.34201	514.31616	5.51069	125.58527
465.44199	514.5957	5.52829	125.58854
465.54199	514.96527	5.54752	125.59189
465.642	515.37299	5.56548	125.59528
465.742	515.62933	5.58522	125.59856
465.84201	515.94153	5.60397	125.60191
465.94199	516.36993	5.62192	125.60526
466.04199	516.69226	5.64131	125.60855
466.142	517.08307	5.65726	125.61189
466.242	517.54224	5.67306	125.61528
466.34201	517.79938	5.69216	125.61856
466.44199	518.11316	5.71054	125.6219
466.54199	518.53528	5.72867	125.62528
466.642	518.78156	5.74384	125.62856
466.742	519.14465	5.76082	125.63187
466.84201	519.62909	5.78073	125.63527
466.94199	519.94415	5.79511	125.63856
467.04199	520.2746	5.81174	125.6419
467.142	520.67023	5.83013	125.64528
467.242	520.90662	5.84849	125.64856
467.34201	521.24945	5.86865	125.65191
467.44199	521.67639	5.8849	125.65527
467.54199	521.97235	5.9035	125.65852
467.642	522.36578	5.92026	125.66188
467.742	522.81183	5.93827	125.66529
467.84201	523.04303	5.95751	125.66857
467.94199	523.33765	5.97387	125.67189
468.04199	523.74603	5.98974	125.67528
468.142	524.01868	6.00805	125.67855
468.242	524.39294	6.02728	125.68188
468.34201	524.82428	6.04488	125.68526
468.44199	525.11115	6.06282	125.68855
468.54199	525.44171	6.08113	125.6919
468.642	525.82288	6.10165	125.69529
468.742	526.04358	6.11788	125.69856
468.84201	526.37415	6.13539	125.70189
468.94199	526.84705	6.15416	125.70528
469.04199	527.13165	6.17123	125.70856
469.142	527.42609	6.18903	125.71188
469.242	527.82312	6.20599	125.71527
469.34201	528.07056	6.22405	125.71858
469.44199	528.35681	6.24123	125.7219
469.54199	528.78638	6.25875	125.72527
469.642	529.06677	6.2771	125.72855
469.742	529.43726	6.29823	125.73189
469.84201	529.86456	6.31872	125.73528
469.94199	530.1048	6.33603	125.73855
470.04199	530.38208	6.35407	125.74187
470.142	530.78967	6.3726	125.74529
470.242	531.06006	6.39051	125.74857
470.34201	531.36938	6.40856	125.75188
470.44199	531.80573	6.42539	125.75528
470.54199	532.09235	6.44211	125.75858
470.642	532.36188	6.45968	125.76188
470.742	532.74713	6.47743	125.76528
470.84201	532.98578	6.49494	125.76857
470.94199	533.27057	6.51345	125.77188
471.04199	533.72949	6.52951	125.77528
471.142	534.01031	6.54705	125.77856
471.242	534.27618	6.56519	125.78186
471.34201	534.71033	6.58089	125.78528
471.44199	534.94977	6.5993	125.78857
471.54199	535.18231	6.61546	125.79186
471.642	535.58252	6.63213	125.79526
471.742	535.90302	6.65016	125.79857
471.84201	536.19604	6.6686	125.80188
471.94199	536.60046	6.68631	125.80527
472.04199	536.83429	6.70368	125.80856
472.142	537.11957	6.71991	125.81189
472.242	537.48987	6.73722	125.81528
472.34201	537.71136	6.75429	125.81857
472.44199	537.99927	6.77183	125.82188
472.54199	538.45081	6.78801	125.82527
472.642	538.74597	6.80544	125.82858
472.742	539.01349	6.82137	125.83189
472.84201	539.35547	6.83741	125.83527
472.94199	539.60889	6.85685	125.83858
473.04199	539.86249	6.87538	125.84189
473.142	540.26239	6.89373	125.84525
473.242	540.56165	6.91276	125.84856
473.34201	540.84613	6.93134	125.85187
473.44199	541.25812	6.95145	125.85529
473.54199	541.48297	6.96926	125.85859
473.642	541.66998	6.98866	125.86187
473.742	542.06317	7.009	125.86528
473.84201	542.31854	7.02642	125.86858
473.94199	542.59155	7.04529	125.87186
474.04199	543.01044	7.06336	125.87527
474.142	543.29291	7.08241	125.87857
474.242	543.54156	7.10212	125.88188
474.34201	543.8761	7.12246	125.88528
474.44199	544.08954	7.14218	125.88857
474.54199	544.33588	7.16025	125.89188
474.642	544.75897	7.1772	125.89526
474.742	545.03162	7.1964	125.89855
474.84201	545.28345	7.21466	125.90185
474.94199	545.67853	7.2328	125.90527
475.04199	545.92493	7.2505	125.9086
475.142	546.11053	7.27046	125.91187
475.242	546.44885	7.29004	125.91526
475.34201	546.76776	7.30912	125.91858
475.44199	547.03906	7.32782	125.92188
475.54199	547.42993	7.34521	125.92527
475.642	547.68494	7.36353	125.92858
475.742	547.86987	7.38098	125.93186
475.84201	548.24353	7.39808	125.93529
475.94199	548.47626	7.4189	125.93859
476.04199	548.68579	7.44022	125.94186
476.142	549.09772	7.45908	125.94525
476.242	549.40991	7.47732	125.94858
476.34201	549.61401	7.49564	125.95186
476.44199	549.92419	7.51039	125.95525
476.54199	550.18439	7.53138	125.9586
476.642	550.39044	7.54749	125.9619
476.742	550.73547	7.56562	125.96526
476.84201	551.0434	7.58115	125.96857
476.94199	551.27478	7.59879	125.97187
477.04199	551.62103	7.61561	125.97525
477.142	551.8797	7.63663	125.97859
477.242	552.03473	7.65393	125.98186
477.34201	552.35266	7.67219	125.98527
477.44199	552.67273	7.68874	125.9886
477.54199	552.89233	7.70596	125.9919
477.642	553.20538	7.72338	125.99523
477.742	553.54669	7.74305	125.9986
477.84201	553.73871	7.76074	126.00188
477.94199	554.02191	7.78036	126.00525
478.04199	554.2948	7.79968	126.0086
478.142	554.49518	7.81916	126.01188
478.242	554.86597	7.83461	126.01524
478.34201	555.19604	7.85587	126.0186
478.44199	555.36353	7.875	126.02187
478.54199	555.64825	7.89281	126.02523
478.642	555.97394	7.90989	126.02863
478.742	556.10822	7.9295	126.03188
478.84201	556.37885	7.94776	126.03524
478.94199	556.72369	7.96493	126.0386
479.04199	556.97235	7.97931	126.04189
479.142	557.26941	7.99651	126.04524
479.242	557.54724	8.01787	126.04859
479.34201	557.71643	8.03892	126.05187
479.44199	557.97479	8.05667	126.05524
479.54199	558.29199	8.07354	126.05861
479.642	558.4931	8.09273	126.06187
479.742	558.77899	8.11023	126.06522
479.84201	559.16125	8.13228	126.06862
479.94199	559.3241	8.15136	126.0719
480.04199	559.51318	8.1691	126.07523
480.142	559.80688	8.18908	126.07861
480.242	559.99982	8.20894	126.0819
480.34201	560.27869	8.22867	126.08524
480.44199	560.62042	8.24854	126.08859
480.54199	560.83563	8.26408	126.09188
480.642	561.12958	8.28306	126.09525
480.742	561.41357	8.30028	126.09862
480.84201	561.53931	8.31713	126.10187
480.94199	561.78864	8.33613	126.10523
481.04199	562.13336	8.35229	126.1086
481.142	562.35565	8.37052	126.11188
481.242	562.62018	8.39048	126.11522
481.34201	562.93561	8.40806	126.1186
481.44199	563.10468	8.42577	126.12191
481.54199	563.302	8.44609	126.12524
481.642	563.58148	8.46388	126.12862
481.72198	563.69293	8.47862	126.13121
