时间 [s]	压缩应力 [MPa]	压缩应变 (应变 1) [%]	位移 [mm]
0	0.04581	0.00249	124.26781
0.1	0.04298	0.00217	124.26797
0.2	0.03793	0.00251	124.26806
0.3	0.04743	0.00248	124.26821
0.4	0.04386	0.00243	124.26845
0.5	0.04372	0.00248	124.26868
0.6	0.04911	0.00248	124.26891
0.7	0.04272	0.00248	124.26912
0.8	0.04592	0.00249	124.26933
0.9	0.04739	0.0022	124.26954
1	0.03725	-0.00003	124.26975
1.1	0.04759	-0.00138	124.26997
1.2	0.04699	-0.00096	124.27019
1.3	0.04225	-0.00018	124.27039
1.4	0.04648	0.00002	124.2706
1.5	0.04704	0.00253	124.27081
1.6	0.05149	0.00248	124.271
1.7	0.04681	0.00248	124.27122
1.8	0.05249	0.00245	124.27142
1.9	0.05003	0.00249	124.27163
2	0.05224	0.00242	124.27184
2.1	0.0595	0.00497	124.27204
2.2	0.06497	0.00267	124.27226
2.3	0.07112	0.00252	124.27248
2.4	0.08155	0.00248	124.27268
2.5	0.09352	0.00248	124.27288
2.6	0.11237	0.00248	124.27309
2.7	0.13442	0.00034	124.27332
2.8	0.16352	0.00002	124.27351
2.9	0.18597	0	124.27371
3	0.23358	0.00215	124.27393
3.1	0.28127	0.00249	124.27414
3.2	0.32747	-0.00002	124.27435
3.3	0.38683	0	124.27455
3.4	0.4403	0.00124	124.27476
3.5	0.50428	-0.00003	124.27497
3.6	0.58462	0.00015	124.27517
3.7	0.65295	-0.00003	124.27538
3.8	0.729	0.00254	124.27559
3.9	0.80693	0.00011	124.27579
4	0.90008	0.00002	124.27601
4.1	0.98314	0.00249	124.27622
4.2	1.07661	-0.00257	124.27643
4.3	1.17379	-0.00248	124.27663
4.4	1.27502	-0.00167	124.27684
4.5	1.38263	0.00001	124.27705
4.6	1.48586	0.00003	124.27728
4.7	1.60028	0.00293	124.27747
4.8	1.71399	0.00034	124.27768
4.9	1.83026	0	124.27789
5	1.94677	-0.00231	124.2781
5.1	2.06968	-0.00249	124.2783
5.2	2.1976	-0.00106	124.27851
5.3	2.33206	0.00003	124.27872
5.4	2.46067	-0.00058	124.27892
5.5	2.59703	-0.00196	124.27913
5.6	2.73338	-0.00251	124.27935
5.7	2.88269	0.00005	124.27956
5.8	3.02386	0.00116	124.27976
5.9	3.17659	0.00248	124.27997
6	3.33021	0.00108	124.28017
6.1	3.4816	0	124.28039
6.2	3.64327	-0.00144	124.28059
6.3	3.80553	-0.00217	124.28079
6.4	3.9725	-0.00468	124.28101
6.5	4.14108	-0.00242	124.28123
6.6	4.32589	-0.00345	124.28143
6.7	4.48651	-0.00237	124.28164
6.8	4.67494	-0.00249	124.28185
6.9	4.86609	-0.00248	124.28205
7	5.04755	-0.00247	124.28226
7.1	5.24505	-0.00507	124.28248
7.2	5.42841	-0.00497	124.28268
7.3	5.62663	-0.00497	124.28289
7.4	5.82504	-0.00497	124.2831
7.5	6.02706	-0.0027	124.28331
7.6	6.2268	-0.00249	124.28352
7.7	6.43309	0.00009	124.28371
7.8	6.63	-0.00147	124.28393
7.9	6.84549	-0.00507	124.28413
8	7.04632	-0.00279	124.28434
8.1	7.2724	-0.005	124.28456
8.2	7.47963	-0.00466	124.28477
8.3	7.69738	-0.00251	124.28497
8.4	7.9103	-0.00277	124.28518
8.5	8.12775	-0.00249	124.28539
8.6	8.35099	0.00011	124.28559
8.7	8.57139	0	124.2858
8.8	8.79925	-0.00025	124.286
8.9	9.01333	-0.00039	124.28621
9	9.23674	-0.00251	124.28642
9.1	9.47089	-0.00019	124.28664
9.2	9.69805	0.00186	124.28684
9.3	9.93161	0.00248	124.28706
9.4	10.16171	0.00248	124.28726
9.5	10.38447	0.00249	124.28747
9.6	10.60851	0.00186	124.28767
9.7	10.84582	0.00093	124.2879
9.8	11.08018	0.00257	124.2881
9.9	11.31201	0.00248	124.28831
10	11.55038	0.00332	124.28851
10.1	11.78814	0.00248	124.28872
10.2	12.0126	0.00248	124.28893
10.3	12.25015	0.00248	124.28913
10.4	12.4947	0.00248	124.28934
10.5	12.73404	0.00452	124.28955
10.6	12.97544	0.0028	124.28976
10.7	13.21314	0.00197	124.28998
10.8	13.45614	0.00016	124.29018
10.9	13.69328	0	124.29039
11	13.93453	0.00082	124.2906
11.1	14.17627	0.00256	124.2908
11.2	14.42282	0.00501	124.29101
11.3	14.67258	0.004	124.29122
11.4	14.91373	0.00502	124.29143
11.5	15.15953	0.00498	124.29163
11.6	15.40015	0.00244	124.29184
11.7	15.64546	0.00363	124.29206
11.8	15.90063	0.00523	124.29226
11.9	16.13973	0.00565	124.29247
12	16.39079	0.00496	124.29268
12.1	16.64009	0.00723	124.29288
12.2	16.88474	0.00495	124.29309
12.3	17.12878	0.00512	124.2933
12.4	17.38816	0.00495	124.29352
12.5	17.63469	0.00724	124.29372
12.6	17.8709	0.00745	124.29391
12.7	18.13654	0.00778	124.29414
12.8	18.37841	0.00961	124.29435
12.9	18.62837	0.00743	124.29455
13	18.8855	0.0074	124.29475
13.1	19.13365	0.00787	124.29497
13.2	19.38822	0.01247	124.29517
13.3	19.63565	0.01219	124.29539
13.4	19.88586	0.01241	124.29559
13.5	20.14245	0.0124	124.29579
13.6	20.39025	0.00754	124.29602
13.7	20.64549	0.01053	124.29622
13.8	20.89299	0.00921	124.29642
13.9	21.14834	0.00994	124.29664
14	21.40269	0.01226	124.29684
14.1	21.65316	0.01486	124.29704
14.2	21.91214	0.01231	124.29726
14.3	22.16006	0.01242	124.29746
14.4	22.42002	0.00986	124.29768
14.5	22.67922	0.01214	124.29789
14.6	22.92965	0.01232	124.2981
14.7	23.18924	0.01144	124.2983
14.8	23.44475	0.01241	124.29851
14.9	23.69439	0.01272	124.29871
15	23.95547	0.01475	124.29892
15.1	24.20821	0.01489	124.29915
15.2	24.46162	0.01681	124.29935
15.3	24.71775	0.01738	124.29955
15.4	24.97766	0.01738	124.29977
15.5	25.23717	0.01479	124.29997
15.6	25.4829	0.0149	124.30017
15.7	25.75064	0.01563	124.30038
15.8	25.99898	0.01766	124.30059
15.9	26.25941	0.01738	124.3008
16	26.51386	0.01498	124.301
16.1	26.77523	0.0149	124.30121
16.2	27.03166	0.0149	124.30142
16.3	27.29417	0.01606	124.30164
16.4	27.55058	0.01489	124.30184
16.5	27.815	0.0149	124.30206
16.6	28.07666	0.01695	124.30226
16.7	28.3385	0.01747	124.30247
16.8	28.59941	0.01991	124.30267
16.9	28.85435	0.01986	124.30289
17	29.11697	0.01986	124.30309
17.1	29.37991	0.02241	124.30331
17.2	29.6457	0.02195	124.30351
17.3	29.89876	0.01982	124.30372
17.4	30.15856	0.01986	124.30392
17.5	30.41953	0.02389	124.30413
17.6	30.67879	0.02122	124.30434
17.7	30.93808	0.02016	124.30457
17.8	31.20275	0.02244	124.30476
17.9	31.45659	0.02235	124.30497
18	31.72175	0.02494	124.30518
18.1	31.97888	0.02483	124.30539
18.2	32.2418	0.02483	124.30559
18.3	32.5024	0.02483	124.3058
18.4	32.76537	0.02483	124.30601
18.5	33.02203	0.02502	124.30621
18.6	33.28342	0.02261	124.30642
18.7	33.54544	0.02255	124.30663
18.8	33.80675	0.02371	124.30685
18.9	34.07336	0.02459	124.30705
19	34.33858	0.02578	124.30726
19.1	34.59624	0.02742	124.30747
19.2	34.86241	0.02732	124.30768
19.3	35.11809	0.02849	124.30788
19.4	35.37163	0.02721	124.30811
19.5	35.6488	0.02481	124.30831
19.6	35.90364	0.02487	124.30852
19.7	36.15826	0.02739	124.30872
19.8	36.41924	0.03004	124.30893
19.9	36.68349	0.02974	124.30914
20	36.9428	0.03026	124.30935
20.1	37.1998	0.0298	124.30955
20.2	37.45529	0.0298	124.30975
20.3	37.7205	0.0298	124.30998
20.4	37.98738	0.03238	124.31017
20.5	38.24086	0.03391	124.31037
20.6	38.50163	0.03274	124.31059
20.7	38.75825	0.02972	124.31081
20.8	39.02131	0.03231	124.311
20.9	39.28687	0.03487	124.31122
21	39.55149	0.03476	124.31142
21.1	39.80942	0.03705	124.31163
21.2	40.08339	0.03473	124.31185
21.3	40.33469	0.03476	124.31206
21.4	40.59666	0.03422	124.31226
21.5	40.85619	0.03245	124.31247
21.6	41.11792	0.03381	124.31268
21.7	41.37753	0.03393	124.31288
21.8	41.63572	0.03714	124.3131
21.9	41.89705	0.03495	124.31331
22	42.15575	0.0373	124.31351
22.1	42.41313	0.03725	124.31373
22.2	42.68378	0.03471	124.31393
22.3	42.92714	0.03476	124.31414
22.4	43.19657	0.03671	124.31435
22.5	43.45033	0.03474	124.31455
22.6	43.71666	0.03476	124.31477
22.7	43.98349	0.03621	124.31496
22.8	44.23236	0.0381	124.31517
22.9	44.49113	0.03724	124.31538
23	44.75256	0.03756	124.31559
23.1	45.01455	0.0372	124.31579
23.2	45.26757	0.03725	124.31602
23.3	45.53315	0.03725	124.31622
23.4	45.79644	0.03966	124.31642
23.5	46.04575	0.04228	124.31664
23.6	46.30551	0.04221	124.31684
23.7	46.56884	0.04221	124.31706
23.8	46.81215	0.04221	124.31727
23.9	47.07625	0.04138	124.31747
24	47.33283	0.04222	124.31768
24.1	47.58627	0.03972	124.31789
24.2	47.83619	0.03974	124.31809
24.3	48.09041	0.03973	124.3183
24.4	48.3457	0.04026	124.31851
24.5	48.59706	0.04212	124.31872
24.6	48.84669	0.04208	124.31892
24.7	49.10676	0.04221	124.31915
24.8	49.3467	0.04218	124.31935
24.9	49.59856	0.04142	124.31955
25	49.85082	0.03971	124.31976
25.1	50.08982	0.04232	124.31997
25.2	50.3436	0.04366	124.32018
25.3	50.59623	0.04469	124.32038
25.4	50.83799	0.04469	124.32059
25.5	51.09025	0.04469	124.3208
25.6	51.34357	0.04727	124.32101
25.7	51.58193	0.04431	124.32121
25.8	51.82956	0.0422	124.32143
25.9	52.07684	0.04226	124.32164
26	52.31669	0.04355	124.32184
26.1	52.55962	0.03969	124.32205
26.2	52.80859	0.04226	124.32226
26.3	53.0524	0.0473	124.32246
26.4	53.28358	0.04718	124.32269
26.5	53.53791	0.04973	124.32289
26.6	53.77395	0.04966	124.3231
26.7	54.01059	0.05057	124.32331
26.8	54.25765	0.05215	124.32351
26.9	54.49203	0.05215	124.32372
27	54.72688	0.05215	124.32393
27.1	54.97331	0.05215	124.32413
27.2	55.20902	0.05215	124.32433
27.3	55.44451	0.04958	124.32455
27.4	55.68858	0.04965	124.32477
27.5	55.91893	0.04964	124.32497
27.6	56.15883	0.05079	124.32518
27.7	56.39408	0.05219	124.32539
27.8	56.62973	0.05214	124.32559
27.9	56.86689	0.05215	124.3258
28	57.10377	0.05311	124.326
28.1	57.33766	0.05214	124.32622
28.2	57.57861	0.05401	124.32644
28.3	57.81578	0.05462	124.32664
28.4	58.04593	0.05533	124.32685
28.5	58.27997	0.05456	124.32706
28.6	58.51459	0.05718	124.32726
28.7	58.74866	0.05459	124.32747
28.8	58.97668	0.05461	124.32767
28.9	59.22602	0.05721	124.32788
29	59.45306	0.05348	124.32809
29.1	59.68526	0.05288	124.32831
29.2	59.91761	0.05464	124.32851
29.3	60.14283	0.05463	124.32873
29.4	60.37795	0.05374	124.32893
29.5	60.61501	0.05525	124.32913
29.6	60.84627	0.05597	124.32935
29.7	61.07236	0.05644	124.32955
29.8	61.30801	0.05611	124.32977
29.9	61.5467	0.0584	124.32998
30	61.76244	0.0621	124.33018
30.1	61.99662	0.06194	124.33038
30.2	62.22682	0.05952	124.3306
30.3	62.45608	0.0596	124.3308
30.4	62.69974	0.05959	124.33101
30.5	62.92139	0.0611	124.33121
30.6	63.15137	0.05779	124.33142
30.7	63.38563	0.05929	124.33163
30.8	63.61936	0.05959	124.33186
30.9	63.85248	0.05959	124.33205
31	64.07823	0.05703	124.33227
31.1	64.30693	0.05719	124.33247
31.2	64.5391	0.05953	124.33268
31.3	64.77214	0.05962	124.33289
31.4	65.00691	0.06128	124.33309
31.5	65.22577	0.06084	124.33331
31.6	65.4673	0.05951	124.33352
31.7	65.69598	0.06201	124.33372
31.8	65.92826	0.06199	124.33393
31.9	66.15802	0.06208	124.33414
32	66.38524	0.06465	124.33434
32.1	66.61989	0.06413	124.33455
32.2	66.85378	0.06206	124.33476
32.3	67.07851	0.06455	124.33497
32.4	67.30574	0.06198	124.33517
32.5	67.53558	0.06383	124.33538
32.6	67.7626	0.06464	124.3356
32.7	67.99655	0.06456	124.33579
32.8	68.23148	0.06456	124.33601
32.9	68.45769	0.06456	124.33622
33	68.6896	0.06456	124.33643
33.1	68.92913	0.06374	124.33664
33.2	69.16039	0.06352	124.33684
33.3	69.38194	0.06603	124.33704
33.4	69.61614	0.06703	124.33727
33.5	69.84678	0.06689	124.33747
33.6	70.0807	0.06959	124.33768
33.7	70.3091	0.06953	124.33789
33.8	70.54041	0.07062	124.3381
33.9	70.76901	0.07155	124.3383
34	71.00498	0.07201	124.33852
34.1	71.23965	0.07137	124.33871
34.2	71.4677	0.07145	124.33894
34.3	71.69888	0.06949	124.33914
34.4	71.91952	0.0717	124.33935
34.5	72.16006	0.0714	124.33956
34.6	72.38767	0.07211	124.33976
34.7	72.62515	0.07386	124.33997
34.8	72.84444	0.07533	124.34018
34.9	73.07259	0.07447	124.34039
35	73.3069	0.0745	124.34058
35.1	73.54168	0.07449	124.3408
35.2	73.77329	0.07449	124.341
35.3	73.99368	0.07449	124.34121
35.4	74.23479	0.07354	124.34142
35.5	74.4676	0.07359	124.34164
35.6	74.70615	0.0745	124.34184
35.7	74.9398	0.07321	124.34206
35.8	75.17282	0.07391	124.34225
35.9	75.40275	0.07431	124.34248
36	75.63126	0.07198	124.34269
36.1	75.85744	0.0729	124.34289
36.2	76.10052	0.07456	124.34309
36.3	76.32635	0.07442	124.34331
36.4	76.55569	0.07562	124.34351
36.5	76.78566	0.07616	124.34371
36.6	77.01915	0.07578	124.34393
36.7	77.25459	0.07704	124.34413
36.8	77.49303	0.07875	124.34435
36.9	77.71422	0.07696	124.34456
37	77.95004	0.07698	124.34476
37.1	78.17205	0.07876	124.34498
37.2	78.40192	0.07753	124.34517
37.3	78.62628	0.07943	124.34538
37.4	78.86259	0.07831	124.3456
37.5	79.09516	0.08001	124.3458
37.6	79.33797	0.08119	124.34601
37.7	79.56069	0.08121	124.34621
37.8	79.79147	0.07945	124.34642
37.9	80.03683	0.08183	124.34664
38	80.2625	0.082	124.34685
38.1	80.49914	0.0819	124.34705
38.2	80.73071	0.07928	124.34726
38.3	80.96653	0.07693	124.34747
38.4	81.19016	0.07909	124.34767
38.5	81.42369	0.07939	124.34789
38.6	81.66375	0.08199	124.34811
38.7	81.89072	0.08001	124.3483
38.8	82.11733	0.08196	124.34851
38.9	82.35565	0.08191	124.34872
39	82.58395	0.08195	124.34893
39.1	82.82279	0.08191	124.34913
39.2	83.05772	0.08192	124.34934
39.3	83.28158	0.08218	124.34956
39.4	83.51239	0.08532	124.34975
39.5	83.74146	0.08631	124.34996
39.6	83.97548	0.08263	124.35017
39.7	84.20428	0.08444	124.35038
39.8	84.44274	0.07975	124.3506
39.9	84.68047	0.08092	124.3508
40	84.90324	0.0838	124.35101
40.1	85.13956	0.08191	124.35122
40.2	85.37186	0.08194	124.35143
40.3	85.60816	0.08227	124.35163
40.4	85.84573	0.08425	124.35184
40.5	86.08672	0.08445	124.35206
40.6	86.31306	0.08443	124.35226
40.7	86.54678	0.08694	124.35247
40.8	86.78047	0.08691	124.35268
40.9	87.0161	0.08814	124.35289
41	87.24376	0.08927	124.35309
41.1	87.48016	0.08939	124.35329
41.2	87.71004	0.08939	124.35351
41.3	87.94234	0.09192	124.35371
41.4	88.1714	0.09198	124.35393
41.5	88.41366	0.09187	124.35414
41.6	88.6421	0.09256	124.35435
41.7	88.87337	0.09437	124.35455
41.8	89.11046	0.09581	124.35476
41.9	89.34115	0.0943	124.35497
42	89.56984	0.09193	124.35517
42.1	89.81001	0.0919	124.35538
42.2	90.03597	0.09191	124.35558
42.3	90.26505	0.09377	124.35579
42.4	90.49673	0.09688	124.356
42.5	90.74158	0.09684	124.35622
42.6	90.96555	0.09938	124.35643
42.7	91.20977	0.09676	124.35664
42.8	91.43688	0.09426	124.35684
42.9	91.67716	0.09436	124.35705
43	91.90744	0.09525	124.35727
43.1	92.14495	0.09431	124.35748
43.2	92.38223	0.09178	124.35768
43.3	92.60878	0.09188	124.35789
43.4	92.8373	0.09441	124.35809
43.5	93.0714	0.09436	124.35831
43.6	93.3056	0.0946	124.35851
43.7	93.53559	0.09653	124.35871
43.8	93.77268	0.09433	124.35892
43.9	94.00477	0.09695	124.35915
44	94.23431	0.0995	124.35934
44.1	94.47104	0.09926	124.35956
44.2	94.7048	0.09805	124.35976
44.3	94.94247	0.09934	124.35997
44.4	95.17658	0.09932	124.36018
44.5	95.40631	0.09716	124.36038
44.6	95.6389	0.09934	124.36059
44.7	95.88007	0.09932	124.3608
44.8	96.11936	0.09931	124.361
44.9	96.35249	0.10186	124.36121
45	96.5956	0.09922	124.36143
45.1	96.82983	0.09933	124.36163
45.2	97.07044	0.09932	124.36184
45.3	97.30161	0.09932	124.36205
45.4	97.54212	0.09604	124.36226
45.5	97.77708	0.10141	124.36246
45.6	98.01917	0.10013	124.36269
45.7	98.25265	0.09879	124.36289
45.8	98.48726	0.09939	124.36311
45.9	98.71886	0.09933	124.3633
46	98.95922	0.10292	124.36351
46.1	99.2011	0.10325	124.36372
46.2	99.4261	0.10554	124.36393
46.3	99.66812	0.10685	124.36413
46.4	99.90051	0.10422	124.36434
46.5	100.13521	0.10652	124.36456
46.6	100.37258	0.10427	124.36476
46.7	100.60434	0.1044	124.36497
46.8	100.84421	0.10429	124.36518
46.9	101.0822	0.10429	124.36539
47	101.31342	0.10631	124.36559
47.1	101.55912	0.10706	124.3658
47.2	101.79237	0.10901	124.366
47.3	102.03535	0.10933	124.36622
47.4	102.26977	0.10931	124.36643
47.5	102.51252	0.10926	124.36664
47.6	102.74767	0.10978	124.36685
47.7	102.99183	0.10945	124.36705
47.8	103.23121	0.11181	124.36726
47.9	103.46034	0.10916	124.36747
48	103.69114	0.10915	124.36768
48.1	103.93513	0.11131	124.36787
48.2	104.16713	0.10941	124.36809
48.3	104.40049	0.10926	124.36829
48.4	104.63979	0.1101	124.36852
48.5	104.88853	0.11011	124.36872
48.6	105.11407	0.11177	124.36893
48.7	105.35728	0.1119	124.36914
48.8	105.59066	0.11275	124.36935
48.9	105.8268	0.11425	124.36954
49	106.06244	0.11422	124.36977
49.1	106.2947	0.11629	124.36998
49.2	106.53078	0.11595	124.37017
49.3	106.76316	0.11541	124.37039
49.4	107.00475	0.11832	124.3706
49.5	107.24148	0.1163	124.3708
49.6	107.47262	0.11677	124.37101
49.7	107.71216	0.1167	124.37122
49.8	107.95298	0.11671	124.37142
49.9	108.19773	0.11929	124.37164
50	108.43409	0.11665	124.37183
50.1	108.66584	0.11672	124.37206
50.2	108.90407	0.11671	124.37227
50.3	109.14661	0.11917	124.37247
50.4	109.37925	0.11919	124.37267
50.5	109.62022	0.11919	124.37289
50.6	109.85761	0.11826	124.37309
50.7	110.10106	0.11664	124.3733
50.8	110.33128	0.11629	124.37352
50.9	110.56697	0.11677	124.37373
51	110.80452	0.11927	124.37393
51.1	111.04166	0.11919	124.37414
51.2	111.28498	0.11945	124.37434
51.3	111.51322	0.11919	124.37455
51.4	111.75594	0.11855	124.37476
51.5	111.99297	0.11948	124.37496
51.6	112.22324	0.11919	124.37518
51.7	112.46313	0.11934	124.37538
51.8	112.69556	0.12175	124.37559
51.9	112.93996	0.12332	124.37579
52	113.17551	0.12415	124.37601
52.1	113.40865	0.12181	124.37621
52.2	113.64762	0.12424	124.37642
52.3	113.88504	0.12415	124.37663
52.4	114.1311	0.12369	124.37684
52.5	114.35701	0.12161	124.37705
52.6	114.61227	0.12167	124.37727
52.7	114.83987	0.12401	124.37747
52.8	115.08189	0.1237	124.37769
52.9	115.32297	0.12421	124.37789
53	115.55417	0.12566	124.37809
53.1	115.79942	0.12655	124.3783
53.2	116.02818	0.12408	124.37851
53.3	116.26745	0.12416	124.37872
53.4	116.50738	0.12528	124.37894
53.5	116.73932	0.12864	124.37914
53.6	116.97308	0.12444	124.37935
53.7	117.21342	0.12672	124.37955
53.8	117.45168	0.12664	124.37976
53.9	117.68506	0.12848	124.37997
54	117.91956	0.12687	124.38018
54.1	118.16232	0.12664	124.38038
54.2	118.38792	0.12903	124.38058
54.3	118.63017	0.12912	124.3808
54.4	118.86533	0.12912	124.381
54.5	119.10056	0.12912	124.38121
54.6	119.3399	0.13418	124.38142
54.7	119.59061	0.13395	124.38164
54.8	119.82734	0.13151	124.38185
54.9	120.062	0.12951	124.38205
55	120.29131	0.13164	124.38226
55.1	120.53802	0.1316	124.38247
55.2	120.78295	0.13383	124.38268
55.3	121.01706	0.13478	124.38289
55.4	121.25322	0.13658	124.3831
55.5	121.49814	0.13435	124.38331
55.6	121.72874	0.1345	124.38351
55.7	121.96387	0.13409	124.38372
55.8	122.20496	0.13308	124.38393
55.9	122.43092	0.13509	124.38413
56	122.67973	0.1365	124.38435
56.1	122.91393	0.13643	124.38456
56.2	123.14941	0.13406	124.38477
56.3	123.38555	0.13601	124.38497
56.4	123.61868	0.13657	124.38518
56.5	123.85664	0.13447	124.38538
56.6	124.09154	0.13495	124.3856
56.7	124.32957	0.13658	124.3858
56.8	124.57277	0.13657	124.386
56.9	124.80548	0.13911	124.38622
57	125.05921	0.14138	124.38642
57.1	125.28638	0.13953	124.38663
57.2	125.5417	0.13901	124.38685
57.3	125.78577	0.14164	124.38705
57.4	126.02382	0.13895	124.38727
57.5	126.27403	0.14162	124.38747
57.6	126.50808	0.14412	124.38767
57.7	126.75272	0.14407	124.38789
57.8	126.9923	0.14402	124.3881
57.9	127.23145	0.14565	124.38831
58	127.48412	0.14488	124.38852
58.1	127.71473	0.1436	124.38873
58.2	127.95042	0.14416	124.38892
58.3	128.19347	0.1417	124.38914
58.4	128.44069	0.14398	124.38934
58.5	128.67706	0.14179	124.38955
58.6	128.90974	0.14291	124.38976
58.7	129.15477	0.14408	124.38996
58.8	129.39861	0.14651	124.39017
58.9	129.63112	0.14651	124.39038
59	129.87834	0.14512	124.39059
59.1	130.11267	0.14388	124.3908
59.2	130.35786	0.14462	124.39101
59.3	130.59261	0.1491	124.39122
59.4	130.83611	0.14904	124.39142
59.5	131.08177	0.15157	124.39163
59.6	131.32458	0.1489	124.39185
59.7	131.56189	0.14899	124.39205
59.8	131.80539	0.14899	124.39227
59.9	132.04933	0.15146	124.39247
60	132.28926	0.15147	124.39268
60.1	132.5287	0.15378	124.39288
60.2	132.76523	0.15163	124.39309
60.3	133.00861	0.15147	124.39331
60.4	133.25307	0.15254	124.39352
60.5	133.48898	0.15277	124.39372
60.6	133.72511	0.15356	124.39394
60.7	133.9626	0.15136	124.39414
60.8	134.20831	0.15147	124.39434
60.9	134.44659	0.15141	124.39455
61	134.67905	0.14896	124.39476
61.1	134.9269	0.15124	124.39497
61.2	135.16643	0.15156	124.39517
61.3	135.39813	0.1504	124.39538
61.4	135.63412	0.15137	124.39558
61.5	135.87479	0.15147	124.3958
61.6	136.11758	0.15404	124.396
61.7	136.35811	0.15395	124.39622
61.8	136.61424	0.15652	124.39643
61.9	136.84718	0.15643	124.39664
62	137.09164	0.15644	124.39684
62.1	137.33788	0.15644	124.39706
62.2	137.5741	0.15677	124.39727
62.3	137.81621	0.15625	124.39747
62.4	138.06409	0.15384	124.39768
62.5	138.29744	0.15574	124.39789
62.6	138.53571	0.15644	124.39809
62.7	138.77858	0.15641	124.3983
62.8	139.02339	0.15645	124.39851
62.9	139.25572	0.15647	124.39871
63	139.50038	0.15725	124.39894
63.1	139.73962	0.15899	124.39914
63.2	139.97351	0.15892	124.39935
63.3	140.21683	0.15892	124.39956
63.4	140.45441	0.15881	124.39977
63.5	140.69232	0.1594	124.39997
63.6	140.9384	0.16141	124.40018
63.7	141.16573	0.1614	124.40038
63.8	141.41557	0.1614	124.4006
63.9	141.65677	0.16094	124.40079
64	141.89648	0.16198	124.401
64.1	142.14598	0.16356	124.40121
64.2	142.38643	0.16388	124.40143
64.3	142.62578	0.16327	124.40163
64.4	142.86697	0.16139	124.40185
64.5	143.11172	0.1635	124.40205
64.6	143.3445	0.16095	124.40225
64.7	143.59116	0.16182	124.40247
64.8	143.82513	0.16294	124.40267
64.9	144.07207	0.1618	124.40289
65	144.32103	0.16325	124.4031
65.1	144.55557	0.16135	124.40331
65.2	144.79788	0.1614	124.40351
65.3	145.04048	0.16397	124.40372
65.4	145.26413	0.16389	124.40392
65.5	145.51524	0.16637	124.40413
65.6	145.7527	0.16611	124.40436
65.7	145.99344	0.16637	124.40456
65.8	146.23471	0.16837	124.40476
65.9	146.47018	0.16813	124.40498
66	146.7097	0.16885	124.40518
66.1	146.94696	0.16651	124.40538
66.2	147.18568	0.16637	124.40559
66.3	147.43103	0.16637	124.4058
66.4	147.66216	0.16641	124.40601
66.5	147.91066	0.16637	124.40621
66.6	148.15535	0.17072	124.40642
66.7	148.39505	0.16994	124.40665
66.8	148.642	0.17026	124.40685
66.9	148.87659	0.16961	124.40705
67	149.11333	0.17115	124.40726
67.1	149.36385	0.17133	124.40747
67.2	149.6026	0.17133	124.40767
67.3	149.8396	0.17133	124.40788
67.4	150.088	0.17133	124.40809
67.5	150.32182	0.17425	124.40831
67.6	150.56352	0.17376	124.40852
67.7	150.80919	0.17377	124.40872
67.8	151.0489	0.17382	124.40893
67.9	151.29192	0.17404	124.40914
68	151.53445	0.1731	124.40934
68.1	151.78564	0.17382	124.40955
68.2	152.02078	0.17128	124.40976
68.3	152.2742	0.17386	124.40997
68.4	152.52237	0.17382	124.41018
68.5	152.74774	0.17622	124.41039
68.6	152.98688	0.1763	124.4106
68.7	153.2401	0.17886	124.4108
68.8	153.48421	0.17672	124.41101
68.9	153.73187	0.17881	124.41122
69	153.97704	0.17943	124.41142
69.1	154.21999	0.17878	124.41163
69.2	154.46968	0.17878	124.41183
69.3	154.7074	0.17882	124.41205
69.4	154.95789	0.17962	124.41226
69.5	155.19405	0.18067	124.41247
69.6	155.44342	0.17877	124.41268
69.7	155.69252	0.17861	124.41289
69.8	155.93089	0.17879	124.41309
69.9	156.18503	0.17754	124.41331
70	156.42186	0.1787	124.41351
70.1	156.66144	0.17883	124.41373
70.2	156.91132	0.17904	124.41393
70.3	157.15715	0.18137	124.41414
70.4	157.39586	0.18228	124.41434
70.5	157.64526	0.18125	124.41456
70.6	157.87627	0.18283	124.41476
70.7	158.12527	0.18375	124.41496
70.8	158.36855	0.18364	124.41518
70.9	158.60442	0.18124	124.41538
71	158.84889	0.18194	124.41558
71.1	159.09209	0.18172	124.41579
71.2	159.33221	0.18406	124.416
71.3	159.57494	0.18451	124.41621
71.4	159.81912	0.18251	124.41643
71.5	160.06485	0.18381	124.41663
71.6	160.31017	0.18375	124.41684
71.7	160.558	0.18603	124.41705
71.8	160.80707	0.18466	124.41727
71.9	161.04993	0.18452	124.41747
72	161.28087	0.18669	124.41769
72.1	161.5311	0.18657	124.41788
72.2	161.77052	0.1846	124.4181
72.3	162.02226	0.18613	124.4183
72.4	162.26367	0.18624	124.41851
72.5	162.50456	0.18739	124.41872
72.6	162.74954	0.1864	124.41894
72.7	162.98782	0.18875	124.41914
72.8	163.2323	0.18872	124.41935
72.9	163.47491	0.18872	124.41956
73	163.7198	0.18884	124.41976
73.1	163.96031	0.18914	124.41998
73.2	164.19101	0.18866	124.42017
73.3	164.4416	0.18872	124.42038
73.4	164.68388	0.19081	124.42059
73.5	164.92737	0.18865	124.4208
73.6	165.16992	0.19125	124.421
73.7	165.41025	0.19373	124.42121
73.8	165.66559	0.19627	124.42143
73.9	165.90401	0.19616	124.42163
74	166.15024	0.19361	124.42184
74.1	166.39294	0.1918	124.42205
74.2	166.64059	0.19008	124.42226
74.3	166.8849	0.19121	124.42248
74.4	167.12131	0.19224	124.42268
74.5	167.36115	0.19358	124.42289
74.6	167.61813	0.1937	124.4231
74.7	167.86078	0.19368	124.4233
74.8	168.09534	0.19377	124.42351
74.9	168.34648	0.19486	124.42372
75	168.57991	0.19603	124.42393
75.1	168.82207	0.1944	124.42414
75.2	169.07169	0.19435	124.42434
75.3	169.30949	0.19562	124.42456
75.4	169.55103	0.19585	124.42477
75.5	169.79451	0.19426	124.42497
75.6	170.03096	0.19613	124.42518
75.7	170.27263	0.19875	124.42539
75.8	170.51645	0.19865	124.42559
75.9	170.7627	0.20064	124.4258
76	170.99867	0.20113	124.42601
76.1	171.25171	0.20111	124.42622
76.2	171.49245	0.1986	124.42641
76.3	171.74094	0.201	124.42663
76.4	171.98822	0.20009	124.42685
76.5	172.2276	0.19895	124.42706
76.6	172.47678	0.19756	124.42726
76.7	172.71513	0.19614	124.42747
76.8	172.9642	0.19627	124.42767
76.9	173.20638	0.19861	124.42789
77	173.44495	0.19927	124.4281
77.1	173.69514	0.20075	124.42831
77.2	173.92729	0.19864	124.42852
77.3	174.17989	0.20048	124.42872
77.4	174.41548	0.20307	124.42892
77.5	174.65244	0.20297	124.42914
77.6	174.89211	0.20241	124.42934
77.7	175.13542	0.20447	124.42954
77.8	175.38405	0.20362	124.42977
77.9	175.62215	0.2059	124.42998
78	175.86044	0.20414	124.43018
78.1	176.09676	0.20673	124.43037
78.2	176.34163	0.20609	124.43058
78.3	176.57845	0.20868	124.43081
78.4	176.82278	0.20922	124.43101
78.5	177.06921	0.20616	124.43121
78.6	177.31857	0.2061	124.43143
78.7	177.56044	0.2061	124.43163
78.8	177.8076	0.20575	124.43183
78.9	178.04933	0.20609	124.43206
79	178.29977	0.20558	124.43227
79.1	178.54337	0.20865	124.43247
79.2	178.78125	0.20858	124.43268
79.3	179.03163	0.20858	124.43288
79.4	179.27007	0.20611	124.43309
79.5	179.52249	0.20866	124.4333
79.6	179.76942	0.20847	124.43352
79.7	180.00758	0.20865	124.43372
79.8	180.26364	0.20858	124.43394
79.9	180.4946	0.20945	124.43413
80	180.73692	0.20852	124.43434
80.1	180.9924	0.20858	124.43456
80.2	181.23242	0.20856	124.43476
80.3	181.47969	0.20798	124.43496
80.4	181.72151	0.20899	124.43517
80.5	181.95679	0.21103	124.43538
80.6	182.19501	0.21106	124.43559
80.7	182.44946	0.21217	124.43579
80.8	182.69926	0.21324	124.436
80.9	182.93909	0.21354	124.43622
81	183.19354	0.21355	124.43643
81.1	183.44223	0.21517	124.43663
81.2	183.6879	0.21484	124.43684
81.3	183.93469	0.21605	124.43705
81.4	184.18228	0.21344	124.43726
81.5	184.42842	0.21613	124.43748
81.6	184.67209	0.21499	124.43768
81.7	184.91658	0.21604	124.43789
81.8	185.16389	0.21603	124.4381
81.9	185.39708	0.21604	124.4383
82	185.6407	0.21603	124.43851
82.1	185.88673	0.21861	124.43872
82.2	186.13635	0.21851	124.43892
82.3	186.3732	0.22103	124.43914
82.4	186.61316	0.2218	124.43935
82.5	186.86482	0.22357	124.43955
82.6	187.09547	0.22348	124.43976
82.7	187.34525	0.22334	124.43997
82.8	187.58809	0.22217	124.44018
82.9	187.82478	0.22295	124.44038
83	188.07758	0.22353	124.44059
83.1	188.31204	0.22181	124.4408
83.2	188.55879	0.2211	124.441
83.3	188.80939	0.22099	124.44122
83.4	189.05605	0.22412	124.44143
83.5	189.30484	0.22347	124.44164
83.6	189.54712	0.22348	124.44185
83.7	189.79326	0.22348	124.44205
83.8	190.03317	0.22092	124.44226
83.9	190.27893	0.22356	124.44247
84	190.52556	0.22348	124.44268
84.1	190.76601	0.22348	124.44289
84.2	191.00835	0.22604	124.4431
84.3	191.25616	0.22596	124.44331
84.4	191.50102	0.22823	124.44351
84.5	191.73509	0.22671	124.44372
84.6	191.98915	0.22854	124.44392
84.7	192.23013	0.22845	124.44414
84.8	192.47054	0.2283	124.44434
84.9	192.72565	0.22593	124.44456
85	192.96599	0.22395	124.44477
85.1	193.20171	0.22466	124.44498
85.2	193.44685	0.22597	124.44518
85.3	193.69615	0.22727	124.44539
85.4	193.93535	0.23006	124.44559
85.5	194.17403	0.23097	124.4458
85.6	194.43028	0.23093	124.44601
85.7	194.66953	0.2284	124.44621
85.8	194.90672	0.2283	124.44642
85.9	195.15674	0.23039	124.44664
86	195.40549	0.22964	124.44685
86.1	195.65831	0.23093	124.44705
86.2	195.89836	0.23094	124.44727
86.3	196.14534	0.2335	124.44746
86.4	196.38557	0.23341	124.44767
86.5	196.6221	0.23341	124.44788
86.6	196.87982	0.23341	124.4481
86.7	197.11748	0.23341	124.4483
86.8	197.36449	0.23474	124.44852
86.9	197.60597	0.2359	124.44872
87	197.84959	0.2359	124.44893
87.1	198.09717	0.23681	124.44913
87.2	198.3405	0.23707	124.44934
87.3	198.57431	0.23586	124.44955
87.4	198.82204	0.23832	124.44975
87.5	199.06831	0.236	124.44997
87.6	199.31015	0.23731	124.45017
87.7	199.54431	0.23825	124.45038
87.8	199.79027	0.23838	124.45059
87.9	200.03787	0.23579	124.45081
88	200.28175	0.23671	124.45101
88.1	200.52853	0.23839	124.45122
88.2	200.77319	0.23838	124.45142
88.3	201.0228	0.23838	124.45163
88.4	201.26082	0.23773	124.45184
88.5	201.50635	0.2384	124.45206
88.6	201.75352	0.23838	124.45226
88.7	201.99268	0.23839	124.45247
88.8	202.23378	0.24092	124.45268
88.9	202.47929	0.23828	124.45288
89	202.72585	0.24097	124.45309
89.1	202.96742	0.24108	124.4533
89.2	203.20082	0.24078	124.45352
89.3	203.45247	0.24338	124.45372
89.4	203.69362	0.24354	124.45393
89.5	203.93271	0.24343	124.45414
89.6	204.17865	0.24587	124.45435
89.7	204.41516	0.24382	124.45455
89.8	204.65707	0.24437	124.45476
89.9	204.9017	0.24445	124.45497
90	205.14055	0.24588	124.45518
90.1	205.38431	0.24834	124.45538
90.2	205.6241	0.24977	124.45559
90.3	205.8739	0.24819	124.4558
90.4	206.12033	0.24832	124.45601
90.5	206.36404	0.24831	124.45621
90.6	206.60919	0.24831	124.45643
90.7	206.84811	0.24831	124.45663
90.8	207.09996	0.24502	124.45684
90.9	207.35515	0.2447	124.45705
91	207.59857	0.24501	124.45725
91.1	207.84869	0.24583	124.45747
91.2	208.09625	0.24807	124.45768
91.3	208.34137	0.25301	124.45789
91.4	208.58942	0.25327	124.4581
91.5	208.83441	0.25329	124.4583
91.6	209.07922	0.25111	124.4585
91.7	209.32646	0.24842	124.45872
91.8	209.58409	0.24829	124.45894
91.9	209.81551	0.25233	124.45912
92	210.06847	0.25329	124.45935
92.1	210.31142	0.25328	124.45956
92.2	210.55406	0.25069	124.45976
92.3	210.80223	0.25335	124.45997
92.4	211.03915	0.25328	124.46016
92.5	211.2851	0.25328	124.46038
92.6	211.53487	0.25208	124.46059
92.7	211.78725	0.25329	124.46079
92.8	212.02881	0.25373	124.46101
92.9	212.27925	0.25556	124.46121
93	212.51794	0.25326	124.46142
93.1	212.76552	0.2558	124.46164
93.2	213.0139	0.25576	124.46185
93.3	213.25977	0.25595	124.46205
93.4	213.51212	0.25586	124.46226
93.5	213.76213	0.25601	124.46246
93.6	214.00128	0.2558	124.46268
93.7	214.24677	0.25634	124.4629
93.8	214.49477	0.25826	124.4631
93.9	214.73943	0.25824	124.4633
94	214.98401	0.25571	124.46352
94.1	215.22362	0.25727	124.46372
94.2	215.47562	0.25749	124.46394
94.3	215.71446	0.25824	124.46415
94.4	215.95236	0.25824	124.46434
94.5	216.19849	0.25824	124.46455
94.6	216.43201	0.25975	124.46475
94.7	216.67804	0.26073	124.46496
94.8	216.92235	0.26066	124.46516
94.9	217.16092	0.26304	124.46538
95	217.40475	0.26321	124.46559
95.1	217.65805	0.26537	124.4658
95.2	217.9057	0.26569	124.46601
95.3	218.14871	0.26569	124.46621
95.4	218.40376	0.26573	124.46642
95.5	218.6394	0.26569	124.46664
95.6	218.89178	0.26569	124.46684
95.7	219.13567	0.26567	124.46706
95.8	219.38304	0.26569	124.46726
95.9	219.62741	0.26569	124.46747
96	219.86705	0.26569	124.46767
96.1	220.11932	0.26571	124.46788
96.2	220.36183	0.26569	124.4681
96.3	220.60519	0.2681	124.46832
96.4	220.84518	0.26596	124.46851
96.5	221.08769	0.267	124.46872
96.6	221.3327	0.26721	124.46893
96.7	221.57582	0.26562	124.46914
96.8	221.81505	0.26464	124.46934
96.9	222.05792	0.2656	124.46955
97	222.3073	0.26761	124.46976
97.1	222.5502	0.26887	124.46996
97.2	222.78378	0.27069	124.47017
97.3	223.03159	0.27066	124.47038
97.4	223.27818	0.26992	124.47058
97.5	223.52852	0.26817	124.4708
97.6	223.77072	0.26797	124.47101
97.7	224.0197	0.26817	124.47121
97.8	224.26251	0.27075	124.47143
97.9	224.51196	0.26929	124.47164
98	224.75558	0.2699	124.47185
98.1	225.00269	0.27037	124.47206
98.2	225.24986	0.26816	124.47227
98.3	225.48923	0.27075	124.47247
98.4	225.73212	0.2732	124.47268
98.5	225.97729	0.27314	124.47289
98.6	226.22913	0.27314	124.4731
98.7	226.46037	0.27572	124.47331
98.8	226.71442	0.27394	124.47352
98.9	226.94945	0.27272	124.47373
99	227.20184	0.27024	124.47393
99.1	227.43445	0.27066	124.47414
99.2	227.67972	0.27066	124.47435
99.3	227.92444	0.27113	124.47456
99.4	228.16644	0.27066	124.47475
99.5	228.40456	0.27315	124.47497
99.6	228.64607	0.27314	124.47517
99.7	228.89024	0.27074	124.47538
99.8	229.13515	0.27314	124.47559
99.9	229.38608	0.27486	124.47579
100	229.6282	0.27562	124.47601
100.1	229.87057	0.27563	124.47622
100.2	230.1172	0.27563	124.47643
100.3	230.35527	0.27666	124.47663
100.4	230.60782	0.2757	124.47684
100.5	230.8459	0.27815	124.47706
100.6	231.0865	0.27552	124.47725
100.7	231.33533	0.27822	124.47748
100.8	231.57913	0.27937	124.47768
100.9	231.81543	0.2781	124.47788
101	232.06201	0.27748	124.4781
101.1	232.30388	0.27816	124.4783
101.2	232.54297	0.27811	124.47851
101.3	232.77629	0.27811	124.47871
101.4	233.0237	0.27811	124.47894
101.5	233.26538	0.28048	124.47913
101.6	233.50644	0.28215	124.47935
101.7	233.75258	0.2827	124.47955
101.8	233.99022	0.28271	124.47977
101.9	234.22961	0.2805	124.47997
102	234.47417	0.28059	124.48017
102.1	234.72043	0.28059	124.48038
102.2	234.97498	0.28309	124.48059
102.3	235.22145	0.28308	124.4808
102.4	235.47041	0.28365	124.48102
102.5	235.72701	0.28347	124.48122
102.6	235.96413	0.28317	124.48143
102.7	236.20657	0.28336	124.48164
102.8	236.45523	0.28514	124.48184
102.9	236.7075	0.28555	124.48205
103	236.94308	0.28785	124.48226
103.1	237.19109	0.28819	124.48247
103.2	237.44308	0.28776	124.48268
103.3	237.69199	0.28554	124.48289
103.4	237.93217	0.28579	124.4831
103.5	238.17793	0.28744	124.4833
103.6	238.42557	0.28741	124.48351
103.7	238.67632	0.28804	124.48372
103.8	238.90929	0.28804	124.48392
103.9	239.15645	0.28804	124.48413
104	239.39885	0.28804	124.48435
104.1	239.64149	0.28803	124.48454
104.2	239.88191	0.28804	124.48476
104.3	240.12395	0.28549	124.48497
104.4	240.35947	0.28937	124.48517
104.5	240.6066	0.29047	124.48537
104.6	240.8665	0.28731	124.48559
104.7	241.10759	0.2856	124.4858
104.8	241.35632	0.28368	124.48601
104.9	241.59863	0.28576	124.48621
105	241.84372	0.2881	124.48642
105.1	242.09482	0.29291	124.48664
105.2	242.33501	0.29299	124.48685
105.3	242.57852	0.29212	124.48706
105.4	242.82645	0.29489	124.48726
105.5	243.07031	0.2958	124.48746
105.6	243.30725	0.29818	124.48768
105.7	243.55984	0.29954	124.48788
105.8	243.79807	0.29824	124.4881
105.9	244.05293	0.29798	124.48831
106	244.2935	0.30208	124.48852
106.1	244.54028	0.30293	124.48872
106.2	244.78561	0.30295	124.48893
106.3	245.02054	0.29782	124.48914
106.4	245.26607	0.29544	124.48934
106.5	245.51123	0.29737	124.48955
106.6	245.75557	0.29988	124.48975
106.7	245.99255	0.30045	124.48996
106.8	246.2339	0.30046	124.49017
106.9	246.48351	0.3014	124.49037
107	246.73152	0.30135	124.49059
107.1	246.98209	0.30041	124.49081
107.2	247.22801	0.30046	124.49101
107.3	247.46947	0.2993	124.49121
107.4	247.71219	0.30045	124.49142
107.5	247.95735	0.30258	124.49163
107.6	248.20845	0.30536	124.49184
107.7	248.44528	0.30284	124.49204
107.8	248.70183	0.30294	124.49226
107.9	248.93707	0.30297	124.49248
108	249.19272	0.29782	124.49268
108.1	249.44283	0.30109	124.49288
108.2	249.67657	0.3018	124.4931
108.3	249.93423	0.30117	124.49331
108.4	250.17496	0.30114	124.49352
108.5	250.42073	0.30295	124.49373
108.6	250.66182	0.30281	124.49393
108.7	250.90364	0.30552	124.49413
108.8	251.14992	0.30798	124.49435
108.9	251.39328	0.30536	124.49455
109	251.6315	0.30542	124.49476
109.1	251.88036	0.30542	124.49496
109.2	252.11989	0.30289	124.49517
109.3	252.36655	0.30294	124.49538
109.4	252.61333	0.30294	124.49559
109.5	252.86	0.30294	124.49579
109.6	253.11406	0.30553	124.49601
109.7	253.36375	0.30414	124.49622
109.8	253.60751	0.30546	124.49643
109.9	253.84518	0.30542	124.49663
110	254.09839	0.3047	124.49684
110.1	254.34035	0.3079	124.49705
110.2	254.58788	0.31037	124.49725
110.3	254.83658	0.31039	124.49747
110.4	255.08073	0.31039	124.49768
110.5	255.33038	0.31039	124.49789
110.6	255.57637	0.31039	124.49809
110.7	255.81805	0.31274	124.4983
110.8	256.06619	0.3143	124.49853
110.9	256.30981	0.31537	124.49873
111	256.55002	0.31304	124.49893
111.1	256.78925	0.31288	124.49915
111.2	257.0369	0.3147	124.49935
111.3	257.27707	0.31601	124.49956
111.4	257.52127	0.31533	124.49976
111.5	257.76483	0.31181	124.49997
111.6	257.99881	0.31295	124.50018
111.7	258.25327	0.31766	124.50039
111.8	258.49905	0.32001	124.50059
111.9	258.7478	0.31543	124.50079
112	258.99231	0.31279	124.50102
112.1	259.23813	0.31542	124.50122
112.2	259.47986	0.3156	124.50141
112.3	259.72794	0.3133	124.50164
112.4	259.97372	0.31088	124.50185
112.5	260.22058	0.31527	124.50204
112.6	260.46481	0.31589	124.50226
112.7	260.71591	0.32005	124.50248
112.8	260.95605	0.32032	124.50268
112.9	261.20349	0.32032	124.50289
113	261.44861	0.31842	124.5031
113.1	261.6937	0.31762	124.5033
113.2	261.93787	0.31917	124.50351
113.3	262.18002	0.32017	124.50372
113.4	262.43143	0.31861	124.50394
113.5	262.66913	0.3204	124.50414
113.6	262.9201	0.32033	124.50435
113.7	263.15469	0.31983	124.50455
113.8	263.40344	0.3204	124.50475
113.9	263.64551	0.32177	124.50496
114	263.89264	0.32055	124.50517
114.1	264.13925	0.3252	124.50537
114.2	264.39072	0.32519	124.50559
114.3	264.63629	0.32529	124.50581
114.4	264.89352	0.32735	124.506
114.5	265.14294	0.32525	124.50621
114.6	265.38446	0.3263	124.50642
114.7	265.6308	0.3258	124.50664
114.8	265.88651	0.32577	124.50684
114.9	266.13608	0.32779	124.50706
115	266.38931	0.32777	124.50726
115.1	266.63739	0.32777	124.50746
115.2	266.87778	0.32795	124.50769
115.3	267.12534	0.33028	124.5079
115.4	267.37869	0.33143	124.5081
115.5	267.61871	0.33034	124.50831
115.6	267.8645	0.3338	124.50851
115.7	268.1044	0.33263	124.50872
115.8	268.35672	0.33274	124.50893
115.9	268.60281	0.33059	124.50913
116	268.84521	0.3327	124.50934
116.1	269.08829	0.33263	124.50955
116.2	269.32407	0.33273	124.50976
116.3	269.56815	0.33497	124.50996
116.4	269.81821	0.33267	124.51017
116.5	270.06906	0.33274	124.51038
116.6	270.3215	0.33123	124.5106
116.7	270.56094	0.33129	124.5108
116.8	270.8071	0.33279	124.51101
116.9	271.0578	0.33274	124.51122
117	271.3157	0.33178	124.51142
117.1	271.54828	0.33036	124.51163
117.2	271.79276	0.33411	124.51186
117.3	272.04434	0.33522	124.51205
117.4	272.28674	0.33522	124.51226
117.5	272.53299	0.33778	124.51247
117.6	272.78214	0.33741	124.51268
117.7	273.01651	0.33767	124.51288
117.8	273.26709	0.33525	124.51309
117.9	273.50589	0.33582	124.51331
118	273.75	0.33705	124.51352
118.1	273.99896	0.33801	124.51373
118.2	274.23215	0.34113	124.51393
118.3	274.48145	0.34022	124.51414
118.4	274.71725	0.34023	124.51435
118.5	274.95801	0.34019	124.51455
118.6	275.20325	0.34024	124.51476
118.7	275.44232	0.34014	124.51497
118.8	275.69141	0.34076	124.51517
118.9	275.93027	0.34154	124.51537
119	276.18311	0.34017	124.51559
119.1	276.41684	0.33844	124.51579
119.2	276.67438	0.33769	124.51601
119.3	276.92276	0.33767	124.51622
119.4	277.1647	0.33918	124.51643
119.5	277.40955	0.34157	124.51664
119.6	277.6525	0.34267	124.51684
119.7	277.90402	0.34267	124.51706
119.8	278.14694	0.34011	124.51727
119.9	278.38284	0.34278	124.51748
120	278.63309	0.34513	124.51768
120.1	278.86853	0.34257	124.51789
120.2	279.11664	0.34233	124.5181
120.3	279.35757	0.34351	124.5183
120.4	279.60223	0.3429	124.51852
120.5	279.84241	0.3452	124.51871
120.6	280.08401	0.34515	124.51894
120.7	280.32809	0.3455	124.51914
120.8	280.56049	0.34516	124.51935
120.9	280.80521	0.34367	124.51954
121	281.0466	0.34523	124.51977
121.1	281.28638	0.34944	124.51996
121.2	281.53357	0.34945	124.52017
121.3	281.78024	0.34762	124.52039
121.4	282.02167	0.34764	124.52059
121.5	282.26495	0.34544	124.52079
121.6	282.517	0.34769	124.52102
121.7	282.76245	0.34704	124.52122
121.8	283.00146	0.34846	124.52142
121.9	283.24161	0.34753	124.52164
122	283.48965	0.34819	124.52184
122.1	283.73135	0.35013	124.52205
122.2	283.97473	0.34998	124.52225
122.3	284.21021	0.35012	124.52246
122.4	284.45432	0.34924	124.52267
122.5	284.69525	0.34982	124.5229
122.6	284.9343	0.34985	124.52309
122.7	285.17865	0.34967	124.52331
122.8	285.42401	0.35011	124.52351
122.9	285.66257	0.35012	124.52372
123	285.8934	0.35265	124.52393
123.1	286.1442	0.3548	124.52413
123.2	286.37018	0.35371	124.52434
123.3	286.60971	0.35312	124.52455
123.4	286.85059	0.35425	124.52475
123.5	287.08505	0.35576	124.52496
123.6	287.3342	0.3551	124.52517
123.7	287.57465	0.35506	124.52538
123.8	287.81705	0.35538	124.52559
123.9	288.05823	0.35749	124.5258
124	288.2977	0.35756	124.52601
124.1	288.54987	0.35512	124.52622
124.2	288.78644	0.35624	124.52644
124.3	289.0332	0.35762	124.52664
124.4	289.26877	0.35757	124.52685
124.5	289.51093	0.35757	124.52705
124.6	289.75327	0.35851	124.52726
124.7	289.99051	0.36006	124.52747
124.8	290.23828	0.36005	124.52768
124.9	290.47775	0.36005	124.52789
125	290.72537	0.36067	124.5281
125.1	290.96777	0.36006	124.52831
125.2	291.20627	0.36	124.52851
125.3	291.45084	0.36005	124.52872
125.4	291.68741	0.36083	124.52893
125.5	291.93848	0.36255	124.52914
125.6	292.17325	0.36253	124.52934
125.7	292.40536	0.36511	124.52955
125.8	292.6456	0.36502	124.52975
125.9	292.88947	0.36443	124.52997
126	293.14017	0.36255	124.53017
126.1	293.37726	0.36266	124.53037
126.2	293.61957	0.36264	124.53059
126.3	293.87448	0.36504	124.5308
126.4	294.11081	0.36758	124.53101
126.5	294.34976	0.3675	124.53122
126.6	294.59692	0.3675	124.53143
126.7	294.83984	0.3675	124.53162
126.8	295.07718	0.36773	124.53184
126.9	295.32343	0.36881	124.53204
127	295.5687	0.37002	124.53226
127.1	295.80478	0.36989	124.53247
127.2	296.04916	0.37004	124.53268
127.3	296.29633	0.36953	124.53288
127.4	296.53265	0.36743	124.5331
127.5	296.77802	0.3675	124.53331
127.6	297.01578	0.3675	124.53352
127.7	297.25607	0.36699	124.53373
127.8	297.49185	0.36979	124.53393
127.9	297.73517	0.3695	124.53413
128	297.96716	0.36998	124.53435
128.10001	298.20078	0.36998	124.53455
128.2	298.44833	0.3723	124.53476
128.3	298.67548	0.37247	124.53497
128.39999	298.92288	0.37207	124.53517
128.5	299.16382	0.3706	124.53539
128.60001	299.41037	0.37244	124.5356
128.7	299.64886	0.37372	124.53579
128.8	299.88107	0.37261	124.53602
128.89999	300.12662	0.3725	124.53622
129	300.36874	0.37247	124.53642
129.10001	300.60303	0.37429	124.53664
129.2	300.84518	0.37494	124.53684
129.3	301.08047	0.3749	124.53705
129.39999	301.33127	0.37314	124.53727
129.5	301.5665	0.37497	124.53748
129.60001	301.81686	0.375	124.53768
129.7	302.05502	0.37672	124.53789
129.8	302.29648	0.37423	124.53811
129.89999	302.53366	0.37242	124.53831
130	302.7728	0.37246	124.53851
130.10001	303.00546	0.37322	124.53873
130.2	303.2475	0.3742	124.53893
130.3	303.48749	0.37499	124.53915
130.39999	303.72794	0.37718	124.53934
130.5	303.95895	0.37577	124.53954
130.60001	304.19482	0.37745	124.53975
130.7	304.43674	0.37707	124.53997
130.8	304.67908	0.37498	124.54017
130.89999	304.9187	0.37818	124.54038
131	305.14902	0.37992	124.54059
131.10001	305.39206	0.37786	124.5408
131.2	305.63876	0.37743	124.541
131.3	305.87372	0.37751	124.54122
131.39999	306.12613	0.37981	124.54144
131.5	306.36743	0.37991	124.54164
131.60001	306.60132	0.37925	124.54184
131.7	306.84836	0.37743	124.54205
131.8	307.08734	0.37999	124.54227
131.89999	307.31821	0.38	124.54247
132	307.56305	0.38284	124.54269
132.10001	307.80606	0.38331	124.54289
132.2	308.04126	0.38259	124.5431
132.3	308.29007	0.38743	124.5433
132.39999	308.52328	0.38733	124.54351
132.5	308.76416	0.38723	124.54372
132.60001	308.99802	0.38484	124.54393
132.7	309.23242	0.383	124.54413
132.8	309.47244	0.38495	124.54433
132.89999	309.70245	0.38698	124.54455
133	309.92694	0.38736	124.54475
133.10001	310.17346	0.38737	124.54495
133.2	310.41281	0.38479	124.54517
133.3	310.65662	0.38471	124.54539
133.39999	310.89331	0.38488	124.54559
133.5	311.14032	0.38488	124.5458
133.60001	311.37286	0.38439	124.54601
133.7	311.61197	0.38739	124.54621
133.8	311.85098	0.39059	124.54642
133.89999	312.0979	0.3912	124.54664
134	312.34698	0.39238	124.54684
134.10001	312.57547	0.38977	124.54706
134.2	312.82285	0.38584	124.54726
134.3	313.0647	0.38744	124.54747
134.39999	313.30029	0.38859	124.54769
134.5	313.53979	0.38967	124.54789
134.60001	313.77359	0.38759	124.5481
134.7	314.0163	0.38765	124.54831
134.8	314.2438	0.38987	124.54852
134.89999	314.48294	0.39191	124.54872
135	314.72171	0.39488	124.54893
135.10001	314.95581	0.39799	124.54913
135.2	315.19833	0.39688	124.54935
135.3	315.4306	0.39483	124.54955
135.39999	315.66425	0.39464	124.54975
135.5	315.90451	0.39651	124.54996
135.60001	316.15222	0.39475	124.55017
135.7	316.39157	0.39482	124.55037
135.8	316.62579	0.39226	124.55058
135.89999	316.86761	0.39319	124.5508
136	317.11575	0.39541	124.55101
136.10001	317.34799	0.39619	124.55122
136.2	317.58679	0.3948	124.55142
136.3	317.82977	0.39735	124.55163
136.39999	318.0639	0.39778	124.55184
136.5	318.30939	0.3973	124.55206
136.60001	318.54877	0.39755	124.55226
136.7	318.79315	0.39981	124.55247
136.8	319.03021	0.39978	124.55269
136.89999	319.25891	0.39978	124.55289
137	319.49765	0.40074	124.55311
137.10001	319.73999	0.39866	124.55331
137.2	319.97614	0.39796	124.55352
137.3	320.20639	0.3982	124.55373
137.39999	320.44858	0.39969	124.55393
137.5	320.68243	0.39979	124.55415
137.60001	320.91977	0.39978	124.55434
137.7	321.15704	0.4001	124.55455
137.8	321.37936	0.39989	124.55475
137.89999	321.62354	0.40026	124.55497
138	321.85825	0.40228	124.55517
138.10001	322.09824	0.40456	124.55538
138.2	322.33923	0.40405	124.55559
138.3	322.58582	0.40667	124.5558
138.39999	322.8316	0.40723	124.55602
138.5	323.06879	0.40723	124.55622
138.60001	323.29077	0.4048	124.55643
138.7	323.54285	0.40469	124.55663
138.8	323.77679	0.40662	124.55684
138.89999	324.01071	0.40722	124.55706
139	324.24582	0.40724	124.55726
139.10001	324.48053	0.40723	124.55747
139.2	324.72122	0.40723	124.55768
139.3	324.95905	0.40874	124.55789
139.39999	325.19388	0.40733	124.55809
139.5	325.41803	0.40974	124.5583
139.60001	325.64728	0.40746	124.55851
139.7	325.87277	0.4047	124.55872
139.8	326.12509	0.4073	124.55893
139.89999	326.35318	0.40958	124.55914
140	326.58258	0.40971	124.55933
140.10001	326.80377	0.4084	124.55955
140.2	327.04175	0.41231	124.55976
140.3	327.28284	0.41055	124.55995
140.39999	327.50693	0.40972	124.56017
140.5	327.74811	0.41226	124.56039
140.60001	327.98001	0.4122	124.56059
140.7	328.22266	0.4122	124.5608
140.8	328.45264	0.4122	124.56102
140.89999	328.69543	0.4122	124.56122
141	328.93378	0.41235	124.56143
141.10001	329.15817	0.41461	124.56164
141.2	329.39407	0.41713	124.56184
141.3	329.61728	0.41716	124.56205
141.39999	329.85623	0.41556	124.56226
141.5	330.08612	0.41476	124.56246
141.60001	330.32257	0.41727	124.56269
141.7	330.55255	0.41716	124.56289
141.8	330.78644	0.41943	124.5631
141.89999	331.01602	0.41965	124.56331
142	331.24933	0.41864	124.56351
142.10001	331.47369	0.41964	124.56371
142.2	331.70737	0.41965	124.56393
142.3	331.93738	0.42104	124.56413
142.39999	332.16431	0.42213	124.56434
142.5	332.39166	0.41961	124.56454
142.60001	332.63644	0.41955	124.56475
142.7	332.86722	0.41782	124.56496
142.8	333.0943	0.41965	124.56518
142.89999	333.33081	0.41706	124.56538
143	333.56146	0.41745	124.5656
143.10001	333.79062	0.41974	124.5658
143.2	334.01788	0.41964	124.566
143.3	334.25504	0.41962	124.56622
143.39999	334.4921	0.42332	124.56642
143.5	334.72482	0.42212	124.56664
143.60001	334.95911	0.42442	124.56685
143.7	335.18686	0.42533	124.56705
143.8	335.41156	0.42451	124.56726
143.89999	335.64688	0.42679	124.56747
144	335.86908	0.42709	124.56767
144.10001	336.10654	0.42452	124.56789
144.2	336.34143	0.42242	124.56809
144.3	336.57205	0.42469	124.56831
144.39999	336.79675	0.42467	124.56851
144.5	337.02734	0.42715	124.56873
144.60001	337.25479	0.42457	124.56893
144.7	337.49054	0.42709	124.56913
144.8	337.70386	0.42578	124.56934
144.89999	337.93237	0.42579	124.56955
145	338.16522	0.42657	124.56976
145.10001	338.38763	0.4246	124.56996
145.2	338.62091	0.42477	124.57017
145.3	338.85205	0.42712	124.57037
145.39999	339.08881	0.42913	124.57059
145.5	339.31802	0.42933	124.5708
145.60001	339.5499	0.42948	124.57101
145.7	339.77225	0.42957	124.57122
145.8	339.99704	0.42699	124.57142
145.89999	340.23026	0.42632	124.57163
146	340.45471	0.42969	124.57185
146.10001	340.69305	0.42763	124.57206
146.2	340.91299	0.42743	124.57227
146.3	341.14383	0.43095	124.57247
146.39999	341.36755	0.42947	124.57268
146.5	341.59805	0.43394	124.57289
146.60001	341.83109	0.43204	124.57309
146.7	342.05182	0.43165	124.57331
146.8	342.28412	0.43193	124.57352
146.89999	342.51089	0.42832	124.57372
147	342.73349	0.43213	124.57393
147.10001	342.96417	0.43234	124.57414
147.2	343.17719	0.43206	124.57433
147.3	343.41074	0.43464	124.57454
147.39999	343.63538	0.43525	124.57476
147.5	343.8642	0.43454	124.57497
147.60001	344.09503	0.43744	124.57517
147.7	344.32187	0.43698	124.57538
147.8	344.55341	0.4396	124.57558
147.89999	344.7886	0.43767	124.57581
148	345.00977	0.43484	124.57601
148.10001	345.24173	0.43948	124.57622
148.2	345.46124	0.4373	124.57642
148.3	345.694	0.43742	124.57664
148.39999	345.91858	0.44063	124.57684
148.5	346.15344	0.43949	124.57704
148.60001	346.3844	0.44127	124.57727
148.7	346.60477	0.44212	124.57748
148.8	346.83231	0.44458	124.57768
148.89999	347.05563	0.44241	124.57789
149	347.28418	0.44421	124.57809
149.10001	347.50867	0.44447	124.57832
149.2	347.72888	0.44445	124.57851
149.3	347.96039	0.44363	124.57873
149.39999	348.18027	0.44199	124.57894
149.5	348.40784	0.44199	124.57914
149.60001	348.62119	0.44455	124.57935
149.7	348.8385	0.44205	124.57954
149.8	349.05359	0.44201	124.57975
149.89999	349.28995	0.44443	124.57996
150	349.50586	0.44695	124.58018
150.10001	349.73978	0.44696	124.58038
150.2	349.96637	0.44696	124.58059
150.3	350.19318	0.44786	124.58081
150.39999	350.4115	0.44826	124.581
150.5	350.62265	0.44744	124.58122
150.60001	350.85403	0.44946	124.58144
150.7	351.07724	0.44993	124.58163
150.8	351.29514	0.45065	124.58184
150.89999	351.5174	0.44969	124.58205
151	351.73822	0.45195	124.58227
151.10001	351.97089	0.45193	124.58247
151.2	352.18201	0.45193	124.58269
151.3	352.40936	0.44936	124.58289
151.39999	352.62177	0.44944	124.58309
151.5	352.84607	0.4532	124.58331
151.60001	353.05396	0.45566	124.58351
151.7	353.27417	0.45228	124.58372
151.8	353.48804	0.45193	124.58392
151.89999	353.7099	0.45346	124.58413
152	353.93262	0.45441	124.58434
152.10001	354.13422	0.45442	124.58455
152.2	354.35239	0.45483	124.58475
152.3	354.57742	0.45676	124.58496
152.39999	354.79205	0.4569	124.58517
152.5	355.00717	0.45619	124.58537
152.60001	355.22214	0.45397	124.58559
152.7	355.45547	0.45196	124.5858
152.8	355.66458	0.45444	124.58601
152.89999	355.88654	0.45285	124.58623
153	356.10645	0.45648	124.58642
153.10001	356.31622	0.45761	124.58664
153.2	356.53613	0.45944	124.58685
153.3	356.74365	0.45949	124.58705
153.39999	356.97437	0.45968	124.58727
153.5	357.17371	0.45936	124.58747
153.60001	357.39264	0.46171	124.58768
153.7	357.61154	0.45803	124.58789
153.8	357.82419	0.45793	124.5881
153.89999	358.03247	0.45757	124.58831
154	358.24115	0.459	124.58851
154.10001	358.45291	0.46162	124.58872
154.2	358.66501	0.46185	124.58893
154.3	358.8797	0.45941	124.58913
154.39999	359.08759	0.45934	124.58934
154.5	359.29822	0.45938	124.58955
154.60001	359.49979	0.46067	124.58976
154.7	359.71649	0.46188	124.58997
154.8	359.94516	0.46321	124.59016
154.89999	360.14981	0.46182	124.59038
155	360.35941	0.46157	124.5906
155.10001	360.57843	0.46444	124.59081
155.2	360.78946	0.46437	124.59101
155.3	361.0051	0.46699	124.59122
155.39999	361.20874	0.46682	124.59142
155.5	361.42307	0.46751	124.59164
155.60001	361.63177	0.46932	124.59184
155.7	361.84042	0.46706	124.59206
155.8	362.06174	0.4669	124.59227
155.89999	362.27658	0.46902	124.59247
156	362.47134	0.4693	124.59267
156.10001	362.68719	0.47172	124.59289
156.2	362.88855	0.47346	124.59309
156.3	363.0976	0.47426	124.59329
156.39999	363.30927	0.47172	124.59352
156.5	363.50937	0.47143	124.59373
156.60001	363.71936	0.46927	124.59393
156.7	363.92538	0.46945	124.59414
156.8	364.12433	0.47036	124.59435
156.89999	364.32642	0.47226	124.59454
157	364.53061	0.47379	124.59475
157.10001	364.74542	0.47179	124.59496
157.2	364.95547	0.47437	124.59517
157.3	365.16223	0.47427	124.59538
157.39999	365.37354	0.47246	124.59558
157.5	365.58563	0.47342	124.5958
157.60001	365.78928	0.47421	124.596
157.7	365.99472	0.47427	124.59622
157.8	366.20312	0.47686	124.59643
157.89999	366.40088	0.4768	124.59663
158	366.62589	0.47676	124.59686
158.10001	366.82077	0.4768	124.59705
158.2	367.03162	0.47924	124.59727
158.3	367.23193	0.47924	124.59747
158.39999	367.43051	0.4772	124.59769
158.5	367.63092	0.47676	124.59789
158.60001	367.83707	0.47417	124.59809
158.7	368.04138	0.47639	124.5983
158.8	368.23663	0.4763	124.59851
158.89999	368.43777	0.47935	124.59871
159	368.64252	0.48177	124.59894
159.10001	368.84634	0.48172	124.59914
159.2	369.03345	0.48082	124.59933
159.3	369.23285	0.47916	124.59954
159.39999	369.43799	0.48147	124.59975
159.5	369.63824	0.48431	124.59997
159.60001	369.84241	0.4855	124.60018
159.7	370.0434	0.48617	124.60038
159.8	370.24829	0.48647	124.60059
159.89999	370.44305	0.48419	124.6008
160	370.64297	0.48164	124.60101
160.10001	370.84036	0.48425	124.60122
160.2	371.04495	0.48512	124.60143
160.3	371.23975	0.48471	124.60164
160.39999	371.43439	0.48644	124.60184
160.5	371.63177	0.4855	124.60205
160.60001	371.82303	0.48669	124.60226
160.7	372.02701	0.4879	124.60247
160.8	372.21991	0.48995	124.60268
160.89999	372.41617	0.48824	124.60289
161	372.60223	0.48669	124.6031
161.10001	372.80194	0.48938	124.6033
161.2	372.99283	0.48917	124.60351
161.3	373.18893	0.48781	124.60372
161.39999	373.37662	0.48918	124.60393
161.5	373.56741	0.4895	124.60413
161.60001	373.75101	0.49167	124.60434
161.7	373.93854	0.49167	124.60455
161.8	374.13464	0.49166	124.60475
161.89999	374.34042	0.49219	124.60497
162	374.52356	0.49414	124.60518
162.10001	374.71771	0.49067	124.60538
162.2	374.90729	0.49401	124.6056
162.3	375.09537	0.4948	124.6058
162.39999	375.28653	0.49638	124.606
162.5	375.4747	0.49605	124.60623
162.60001	375.66483	0.49671	124.60643
162.7	375.84677	0.49584	124.60664
162.8	376.03983	0.49669	124.60685
162.89999	376.22565	0.49662	124.60706
163	376.40329	0.49602	124.60725
163.10001	376.59592	0.49662	124.60747
163.2	376.78384	0.49863	124.60769
163.3	376.95584	0.50043	124.60789
163.39999	377.14554	0.499	124.6081
163.5	377.3317	0.50163	124.60831
163.60001	377.50555	0.50159	124.60852
163.7	377.69299	0.50159	124.60873
163.8	377.87067	0.50161	124.60892
163.89999	378.05063	0.50158	124.60914
164	378.22772	0.50331	124.60934
164.10001	378.4093	0.50407	124.60955
164.2	378.58539	0.50407	124.60976
164.3	378.76276	0.50149	124.60996
164.39999	378.94608	0.50159	124.61017
164.5	379.13425	0.50385	124.61039
164.60001	379.31287	0.50396	124.6106
164.7	379.5083	0.50407	124.6108
164.8	379.67563	0.50479	124.61102
164.89999	379.85123	0.50406	124.61121
165	380.02637	0.50365	124.61142
165.10001	380.19678	0.50408	124.61163
165.2	380.37454	0.50581	124.61184
165.3	380.5484	0.50737	124.61205
165.39999	380.72818	0.50652	124.61227
165.5	380.90253	0.50604	124.61247
165.60001	381.06833	0.50917	124.61267
165.7	381.23843	0.5121	124.61288
165.8	381.41898	0.51149	124.61311
165.89999	381.57852	0.51152	124.6133
166	381.75085	0.51353	124.61352
166.10001	381.92709	0.51141	124.61372
166.2	382.08603	0.51449	124.61393
166.3	382.24167	0.51507	124.61414
166.39999	382.4231	0.51401	124.61434
166.5	382.57986	0.51174	124.61454
166.60001	382.75638	0.51182	124.61476
166.7	382.91641	0.51346	124.61497
166.8	383.07974	0.51401	124.61517
166.89999	383.259	0.514	124.61538
167	383.42908	0.51359	124.6156
167.10001	383.59119	0.51407	124.61581
167.2	383.75046	0.51425	124.61601
167.3	383.90628	0.51761	124.61622
167.39999	384.07529	0.51751	124.61643
167.5	384.23846	0.51897	124.61663
167.60001	384.39832	0.51899	124.61684
167.7	384.56033	0.51897	124.61705
167.8	384.7225	0.52129	124.61727
167.89999	384.89273	0.51891	124.61747
168	385.04346	0.51897	124.61768
168.10001	385.20013	0.52155	124.61789
168.2	385.35776	0.52145	124.6181
168.3	385.50922	0.5195	124.61832
168.39999	385.65613	0.51899	124.61851
168.5	385.81665	0.51897	124.61873
168.60001	385.97113	0.518	124.61893
168.7	386.12958	0.51639	124.61914
168.8	386.26819	0.51907	124.61933
168.89999	386.41241	0.52051	124.61954
169	386.56943	0.51941	124.61975
169.10001	386.71451	0.52154	124.61996
169.2	386.88049	0.52404	124.62018
169.3	387.02023	0.52415	124.62038
169.39999	387.17896	0.52454	124.62059
169.5	387.3324	0.52645	124.6208
169.60001	387.47366	0.52642	124.621
169.7	387.63025	0.525	124.62122
169.8	387.76691	0.52612	124.62143
169.89999	387.9173	0.52742	124.62164
170	388.06509	0.52891	124.62185
170.10001	388.20862	0.52886	124.62205
170.2	388.35254	0.52791	124.62225
170.3	388.49548	0.53142	124.62247
170.39999	388.64392	0.53154	124.62269
170.5	388.77829	0.52924	124.62289
170.60001	388.92609	0.53114	124.6231
170.7	389.06433	0.52891	124.62331
170.8	389.19632	0.52636	124.62351
170.89999	389.34052	0.52898	124.62372
171	389.47437	0.52911	124.62392
171.10001	389.59903	0.52999	124.62413
171.2	389.73837	0.53166	124.62434
171.3	389.87332	0.53152	124.62454
171.39999	390.01065	0.52998	124.62475
171.5	390.14764	0.52954	124.62496
171.60001	390.28555	0.53134	124.62517
171.7	390.42261	0.53142	124.62538
171.8	390.56146	0.53391	124.6256
171.89999	390.69241	0.53387	124.6258
172	390.82254	0.53141	124.626
172.10001	390.95474	0.53396	124.62621
172.2	391.08301	0.53387	124.62642
172.3	391.2106	0.53807	124.62664
172.39999	391.336	0.53883	124.62685
172.5	391.46976	0.53992	124.62705
172.60001	391.59412	0.54107	124.62727
172.7	391.71539	0.54065	124.62747
172.8	391.83371	0.54128	124.62769
172.89999	391.95187	0.54132	124.6279
173	392.0824	0.54119	124.62811
173.10001	392.1969	0.54194	124.6283
173.2	392.30716	0.54381	124.62852
173.3	392.43469	0.5438	124.62872
173.39999	392.54553	0.5438	124.62893
173.5	392.66422	0.54378	124.62914
173.60001	392.77893	0.54287	124.62934
173.7	392.89017	0.54354	124.62955
173.8	393.00452	0.54636	124.62976
173.89999	393.12259	0.54888	124.62996
174	393.24606	0.54875	124.63017
174.10001	393.36453	0.54658	124.63038
174.2	393.48322	0.54886	124.63059
174.3	393.5928	0.54877	124.6308
174.39999	393.70926	0.54877	124.63101
174.5	393.82901	0.54877	124.63122
174.60001	393.9353	0.55131	124.63142
174.7	394.04739	0.55308	124.63163
174.8	394.15277	0.55277	124.63185
174.89999	394.26099	0.55612	124.63206
175	394.37119	0.5554	124.63226
175.10001	394.48654	0.55373	124.63248
175.2	394.58365	0.55626	124.63268
175.3	394.69061	0.55658	124.63289
175.39999	394.79623	0.55615	124.6331
175.5	394.89938	0.55874	124.63332
175.60001	394.99005	0.55848	124.63352
175.7	395.10806	0.55881	124.63372
175.8	395.20468	0.55869	124.63393
175.89999	395.2988	0.5607	124.63414
176	395.39536	0.56119	124.63433
176.10001	395.49933	0.56113	124.63454
176.2	395.59961	0.56365	124.63476
176.3	395.70584	0.5604	124.63496
176.39999	395.81439	0.55824	124.63518
176.5	395.92139	0.55896	124.63539
176.60001	396.01202	0.56125	124.6356
176.7	396.11453	0.56125	124.63581
176.8	396.20193	0.56363	124.63602
176.89999	396.29987	0.56511	124.63622
177	396.39975	0.56615	124.63643
177.10001	396.49551	0.56705	124.63663
177.2	396.58914	0.56864	124.63685
177.3	396.67755	0.56919	124.63706
177.39999	396.78244	0.56606	124.63727
177.5	396.86182	0.56357	124.63747
177.60001	396.94931	0.56585	124.63768
177.7	397.04898	0.56865	124.63789
177.8	397.13474	0.56863	124.63809
177.89999	397.2262	0.57009	124.63831
178	397.31503	0.57131	124.6385
178.10001	397.40726	0.57364	124.63873
178.2	397.50095	0.5736	124.63894
178.3	397.56876	0.57371	124.63913
178.39999	397.65259	0.57616	124.63934
178.5	397.74689	0.57607	124.63954
178.60001	397.83801	0.57609	124.63976
178.7	397.92303	0.57848	124.63997
178.8	398.00516	0.57857	124.64017
178.89999	398.09998	0.58116	124.64038
179	398.19043	0.58158	124.64059
179.10001	398.26956	0.58115	124.64079
179.2	398.35699	0.58229	124.64101
179.3	398.4382	0.58336	124.64123
179.39999	398.52567	0.58353	124.64143
179.5	398.60153	0.58587	124.64163
179.60001	398.68213	0.58598	124.64185
179.7	398.75797	0.58817	124.64205
179.8	398.83691	0.58636	124.64227
179.89999	398.91641	0.59109	124.64248
180	398.99603	0.58845	124.64268
180.10001	399.07071	0.59072	124.64289
180.2	399.15158	0.5908	124.6431
180.3	399.22131	0.58914	124.6433
180.39999	399.29547	0.59078	124.64351
180.5	399.37564	0.59351	124.64372
180.60001	399.44168	0.59346	124.64392
180.7	399.51157	0.59089	124.64413
180.8	399.59705	0.59343	124.64434
180.89999	399.66501	0.59314	124.64455
181	399.74713	0.59564	124.64475
181.10001	399.81888	0.59594	124.64497
181.2	399.89929	0.59595	124.64518
181.3	399.98138	0.59581	124.64539
181.39999	400.05112	0.59848	124.64559
181.5	400.11258	0.59843	124.6458
181.60001	400.18497	0.601	124.64601
181.7	400.2562	0.60091	124.64622
181.8	400.33176	0.60532	124.64642
181.89999	400.40488	0.60753	124.64664
182	400.47449	0.60808	124.64685
182.10001	400.53931	0.60598	124.64705
182.2	400.61932	0.60588	124.64726
182.3	400.6799	0.60533	124.64747
182.39999	400.74765	0.60596	124.64767
182.5	400.81647	0.60332	124.6479
182.60001	400.88354	0.60763	124.6481
182.7	400.94986	0.61051	124.64831
182.8	401.01492	0.61273	124.64851
182.89999	401.08398	0.61076	124.64872
183	401.13892	0.61054	124.64893
183.10001	401.20334	0.6115	124.64914
183.2	401.26593	0.61273	124.64934
183.3	401.33441	0.61588	124.64954
183.39999	401.4007	0.61352	124.64976
183.5	401.46747	0.61585	124.64996
183.60001	401.54419	0.61809	124.65016
183.7	401.60089	0.61638	124.65038
183.8	401.67261	0.61767	124.6506
183.89999	401.73758	0.61835	124.6508
184	401.79657	0.6208	124.65101
184.10001	401.85776	0.61753	124.65121
184.2	401.92178	0.61834	124.65143
184.3	401.98972	0.62075	124.65164
184.39999	402.05093	0.62303	124.65185
184.5	402.11993	0.62577	124.65206
184.60001	402.17514	0.62575	124.65227
184.7	402.23624	0.62579	124.65247
184.8	402.29037	0.62788	124.65268
184.89999	402.35349	0.62823	124.65289
185	402.42905	0.62848	124.65311
185.10001	402.48093	0.62895	124.65331
185.2	402.53006	0.62821	124.65352
185.3	402.59146	0.63077	124.65372
185.39999	402.65643	0.6333	124.65394
185.5	402.71127	0.63576	124.65414
185.60001	402.76013	0.63513	124.65433
185.7	402.82056	0.63318	124.65456
185.8	402.8819	0.63698	124.65476
185.89999	402.9559	0.63811	124.65496
186	403.01202	0.63899	124.65517
186.10001	403.06628	0.63813	124.65538
186.2	403.13611	0.64075	124.65559
186.3	403.18124	0.64064	124.65579
186.39999	403.24106	0.64295	124.65601
186.5	403.30383	0.64334	124.65622
186.60001	403.36758	0.64637	124.65643
186.7	403.42798	0.64553	124.65663
186.8	403.48276	0.646	124.65685
186.89999	403.54709	0.6482	124.65706
187	403.61151	0.64809	124.65726
187.10001	403.65985	0.64809	124.65747
187.2	403.7189	0.64551	124.65768
187.3	403.77805	0.64565	124.65788
187.39999	403.82806	0.64819	124.6581
187.5	403.89352	0.648	124.65832
187.60001	403.94656	0.65067	124.65852
187.7	404.00516	0.65315	124.65873
187.8	404.05554	0.6514	124.65894
187.89999	404.10004	0.65387	124.65913
188	404.15567	0.6556	124.65934
188.10001	404.21301	0.6513	124.65954
188.2	404.27322	0.6545	124.65976
188.3	404.3287	0.65298	124.65997
188.39999	404.39346	0.65696	124.66018
188.5	404.44724	0.6607	124.66038
188.60001	404.50543	0.66459	124.66059
188.7	404.56415	0.66312	124.6608
188.8	404.6192	0.66301	124.66101
188.89999	404.68683	0.66377	124.66122
189	404.74219	0.66299	124.66143
189.10001	404.80844	0.66299	124.66164
189.2	404.8544	0.66299	124.66184
189.3	404.90973	0.66558	124.66205
189.39999	404.95847	0.66547	124.66227
189.5	405.02194	0.66341	124.66248
189.60001	405.07932	0.66547	124.66268
189.7	405.12775	0.66731	124.66289
189.8	405.18823	0.66588	124.6631
189.89999	405.23267	0.66567	124.66331
190	405.28766	0.66802	124.66351
190.10001	405.33548	0.67188	124.66372
190.2	405.38602	0.67292	124.66393
190.3	405.44891	0.67424	124.66414
190.39999	405.49493	0.67595	124.66434
190.5	405.54779	0.67452	124.66454
190.60001	405.60339	0.67795	124.66476
190.7	405.65683	0.67781	124.66496
190.8	405.72528	0.67789	124.66518
190.89999	405.77231	0.68015	124.66537
191	405.83591	0.67878	124.6656
191.10001	405.89114	0.68048	124.66579
191.2	405.94647	0.68292	124.66601
191.3	406.00647	0.68288	124.66623
191.39999	406.06302	0.68525	124.66643
191.5	406.11041	0.68536	124.66664
191.60001	406.15753	0.68777	124.66685
191.7	406.22372	0.68697	124.66707
191.8	406.26834	0.68592	124.66726
191.89999	406.3187	0.68811	124.66747
192	406.37268	0.68782	124.66769
192.10001	406.42618	0.68989	124.6679
192.2	406.47003	0.68772	124.6681
192.3	406.52518	0.69288	124.6683
192.39999	406.57114	0.69534	124.66852
192.5	406.62451	0.69526	124.66872
192.60001	406.6741	0.69727	124.66892
192.7	406.71735	0.6977	124.66914
192.8	406.76764	0.69778	124.66933
192.89999	406.83453	0.69819	124.66956
193	406.87564	0.69983	124.66975
193.10001	406.93307	0.70024	124.66996
193.2	406.99521	0.70191	124.67017
193.3	407.04187	0.70233	124.67038
193.39999	407.09518	0.70277	124.67058
193.5	407.15701	0.70524	124.67081
193.60001	407.20813	0.7052	124.67101
193.7	407.26215	0.70519	124.67121
193.8	407.32175	0.70773	124.67144
193.89999	407.35928	0.71024	124.67165
194	407.4129	0.71094	124.67185
194.10001	407.46783	0.71259	124.67206
194.2	407.51663	0.7124	124.67226
194.3	407.57187	0.71265	124.67247
194.39999	407.61624	0.71519	124.67268
194.5	407.66571	0.71355	124.67288
194.60001	407.71341	0.71515	124.67309
194.7	407.76993	0.71579	124.67332
194.8	407.8075	0.7157	124.67352
194.89999	407.85501	0.71771	124.67372
195	407.90103	0.71762	124.67392
195.10001	407.93967	0.71932	124.67413
195.2	407.99442	0.71837	124.67433
195.3	408.0531	0.71967	124.67454
195.39999	408.10977	0.7201	124.67476
195.5	408.15155	0.72268	124.67496
195.60001	408.20404	0.7258	124.67517
195.7	408.25781	0.72775	124.67538
195.8	408.30698	0.72542	124.67559
195.89999	408.36298	0.72677	124.6758
196	408.41519	0.72769	124.67601
196.10001	408.46469	0.72454	124.67622
196.2	408.51837	0.72549	124.67645
196.3	408.56454	0.72809	124.67664
196.39999	408.60892	0.73341	124.67684
196.5	408.65546	0.73419	124.67706
196.60001	408.70508	0.73251	124.67727
196.7	408.75055	0.73252	124.67747
196.8	408.80084	0.73197	124.67768
196.89999	408.85275	0.73253	124.67789
197	408.89053	0.73252	124.6781
197.10001	408.93637	0.73452	124.6783
197.2	408.98254	0.73696	124.6785
197.3	409.02795	0.73541	124.67872
197.39999	409.07849	0.73758	124.67892
197.5	409.11481	0.73753	124.67912
197.60001	409.16269	0.74007	124.67934
197.7	409.21436	0.73997	124.67954
197.8	409.2677	0.74169	124.67976
197.89999	409.31946	0.74245	124.67997
198	409.36905	0.74284	124.68018
198.10001	409.42685	0.74583	124.68038
198.2	409.47256	0.74684	124.68059
198.3	409.52283	0.74609	124.68081
198.39999	409.57217	0.74498	124.68102
198.5	409.61719	0.74603	124.68123
198.60001	409.66547	0.74735	124.68143
198.7	409.70963	0.74904	124.68163
198.8	409.75455	0.75462	124.68185
198.89999	409.80646	0.75486	124.68205
199	409.85944	0.75285	124.68227
199.10001	409.90836	0.75491	124.68248
199.2	409.94778	0.75923	124.68269
199.3	409.99951	0.75724	124.68289
199.39999	410.03918	0.75853	124.6831
199.5	410.08295	0.75995	124.6833
199.60001	410.13104	0.75983	124.68352
199.7	410.17657	0.76172	124.68372
199.8	410.21478	0.76221	124.68392
199.89999	410.25763	0.76173	124.68414
200	410.30505	0.76061	124.68434
200.10001	410.36133	0.7598	124.68454
200.2	410.40738	0.76298	124.68475
200.3	410.45938	0.76495	124.68497
200.39999	410.50967	0.7648	124.68517
200.5	410.5654	0.76735	124.68539
200.60001	410.61783	0.76742	124.68559
200.7	410.65802	0.76967	124.68581
200.8	410.7103	0.76983	124.68602
200.89999	410.74289	0.77232	124.68621
201	410.79736	0.7717	124.68643
201.10001	410.84689	0.77227	124.68665
201.2	410.88528	0.77484	124.68684
201.3	410.93323	0.77687	124.68705
201.39999	410.98547	0.77916	124.68728
201.5	411.03271	0.7797	124.68748
201.60001	411.08105	0.78222	124.68768
201.7	411.11087	0.78218	124.6879
201.8	411.1691	0.78384	124.6881
201.89999	411.21463	0.78213	124.68831
202	411.25534	0.78209	124.68851
202.10001	411.29544	0.78451	124.68872
202.2	411.33878	0.78465	124.68893
202.3	411.38492	0.78466	124.68913
202.39999	411.42456	0.78723	124.68934
202.5	411.47479	0.78715	124.68955
202.60001	411.52026	0.78715	124.68976
202.7	411.57141	0.78947	124.68996
202.8	411.62579	0.78963	124.69019
202.89999	411.6734	0.78963	124.69039
203	411.71518	0.78963	124.6906
203.10001	411.76172	0.79021	124.6908
203.2	411.80478	0.79459	124.69101
203.3	411.85468	0.79555	124.69122
203.39999	411.9039	0.79716	124.69143
203.5	411.94516	0.79891	124.69163
203.60001	411.98889	0.79707	124.69185
203.7	412.04102	0.79569	124.69206
203.8	412.08655	0.79722	124.69226
203.89999	412.1235	0.79923	124.69247
204	412.17291	0.79961	124.69268
204.10001	412.22217	0.80204	124.69289
204.2	412.25742	0.80232	124.69308
204.3	412.31693	0.80132	124.69331
204.39999	412.36023	0.80207	124.69352
204.5	412.40369	0.80346	124.69372
204.60001	412.42862	0.80455	124.69392
204.7	412.48166	0.80517	124.69412
204.8	412.52686	0.80956	124.69435
204.89999	412.57361	0.80957	124.69455
205	412.62515	0.81201	124.69476
205.10001	412.65875	0.81198	124.69497
205.2	412.72598	0.81181	124.69518
205.3	412.7724	0.8134	124.69539
205.39999	412.8143	0.81262	124.6956
205.5	412.85947	0.81464	124.69581
205.60001	412.90454	0.8147	124.69601
205.7	412.94312	0.81447	124.69622
205.8	412.99222	0.81559	124.69643
205.89999	413.04047	0.81923	124.69663
206	413.09238	0.81942	124.69685
206.10001	413.13766	0.82195	124.69706
206.2	413.1814	0.82172	124.69727
206.3	413.22849	0.81968	124.69748
206.39999	413.26007	0.82212	124.69768
206.5	413.31039	0.82435	124.69788
206.60001	413.35077	0.8269	124.6981
206.7	413.39264	0.82843	124.6983
206.8	413.44168	0.82666	124.69852
206.89999	413.47635	0.82757	124.69872
207	413.52078	0.82945	124.69892
207.10001	413.55582	0.82936	124.69913
207.2	413.60645	0.82998	124.69933
207.3	413.64651	0.83114	124.69954
207.39999	413.69394	0.83432	124.69975
207.5	413.7359	0.83303	124.69996
207.60001	413.78293	0.83184	124.70017
207.7	413.83984	0.83689	124.70039
207.8	413.8812	0.8365	124.70059
207.89999	413.93472	0.83431	124.7008
208	413.97409	0.83658	124.70102
208.10001	414.01355	0.83681	124.70123
208.2	414.05606	0.83738	124.70143
208.3	414.10382	0.83939	124.70164
208.39999	414.15909	0.84155	124.70186
208.5	414.19415	0.84434	124.70205
208.60001	414.24292	0.84439	124.70227
208.7	414.27945	0.84173	124.70248
208.8	414.3092	0.84435	124.70268
208.89999	414.35733	0.84465	124.7029
209	414.4053	0.84924	124.70309
209.10001	414.44839	0.84871	124.7033
209.2	414.49448	0.84887	124.70351
209.3	414.52316	0.84667	124.70372
209.39999	414.56271	0.84451	124.70392
209.5	414.59744	0.84683	124.70413
209.60001	414.65298	0.84675	124.70434
209.7	414.69604	0.85141	124.70454
209.8	414.74597	0.85407	124.70475
209.89999	414.79248	0.85419	124.70496
210	414.83856	0.85676	124.70518
210.10001	414.89157	0.85663	124.70539
210.2	414.92548	0.85668	124.70559
210.3	414.9725	0.86056	124.7058
210.39999	415.01895	0.86395	124.70601
210.5	415.06311	0.86162	124.70622
210.60001	415.10687	0.86471	124.70643
210.7	415.15356	0.86858	124.70664
210.8	415.20395	0.86732	124.70685
210.89999	415.24374	0.87165	124.70705
211	415.29199	0.86855	124.70728
211.10001	415.33585	0.87073	124.70748
211.2	415.37265	0.86903	124.7077
211.3	415.41681	0.86909	124.70789
211.39999	415.45117	0.86985	124.7081
211.5	415.49109	0.86948	124.70831
211.60001	415.53134	0.87168	124.70852
211.7	415.57477	0.87317	124.70872
211.8	415.62247	0.87248	124.70893
211.89999	415.65338	0.87546	124.70912
212	415.69843	0.87654	124.70934
212.10001	415.74011	0.87772	124.70955
212.2	415.79349	0.87898	124.70975
212.3	415.83411	0.88199	124.70996
212.39999	415.87775	0.88154	124.71018
212.5	415.93481	0.88148	124.71039
212.60001	415.9718	0.88212	124.71059
212.7	416.01443	0.879	124.71081
212.8	416.06177	0.87903	124.71101
212.89999	416.10794	0.88176	124.71121
213	416.15887	0.88161	124.71144
213.10001	416.19482	0.88409	124.71164
213.2	416.24118	0.88399	124.71185
213.3	416.28357	0.88607	124.71206
213.39999	416.32446	0.88647	124.71227
213.5	416.3703	0.88906	124.71246
213.60001	416.40421	0.88645	124.71268
213.7	416.45038	0.89084	124.71288
213.8	416.48975	0.89445	124.7131
213.89999	416.53052	0.89641	124.71331
214	416.57687	0.89893	124.71352
214.10001	416.61646	0.89889	124.71371
214.2	416.64993	0.8982	124.71392
214.3	416.6929	0.89786	124.71412
214.39999	416.74417	0.89914	124.71435
214.5	416.78149	0.90191	124.71455
214.60001	416.83633	0.90137	124.71476
214.7	416.87143	0.90212	124.71497
214.8	416.91989	0.90735	124.71517
214.89999	416.96268	0.90645	124.71538
215	417.00858	0.90925	124.71559
215.10001	417.05386	0.90659	124.71581
215.2	417.09933	0.90699	124.71601
215.3	417.14627	0.90574	124.71622
215.39999	417.19077	0.90629	124.71642
215.5	417.23764	0.90634	124.71664
215.60001	417.27936	0.90884	124.71684
215.7	417.32397	0.9139	124.71706
215.8	417.36676	0.91378	124.71726
215.89999	417.40768	0.91379	124.71748
216	417.44174	0.91375	124.71768
216.10001	417.49268	0.91618	124.71789
216.2	417.53308	0.91885	124.71809
216.3	417.57632	0.91875	124.7183
216.39999	417.61459	0.92134	124.71851
216.5	417.65002	0.92381	124.71872
216.60001	417.68704	0.92372	124.71892
216.7	417.72937	0.92602	124.71913
216.8	417.77344	0.92621	124.71934
216.89999	417.82669	0.92654	124.71954
217	417.86111	0.9262	124.71975
217.10001	417.90717	0.92362	124.71997
217.2	417.94739	0.92372	124.72018
217.3	417.99979	0.92628	124.72038
217.39999	418.04703	0.92833	124.72059
217.5	418.09131	0.92909	124.72081
217.60001	418.13452	0.93076	124.72102
217.7	418.18274	0.92958	124.72122
217.8	418.21899	0.93118	124.72143
217.89999	418.26279	0.93117	124.72164
218	418.2868	0.93128	124.72184
218.10001	418.34665	0.93372	124.72206
218.2	418.37952	0.93365	124.72226
218.3	418.42596	0.93459	124.72248
218.39999	418.47363	0.9361	124.72268
218.5	418.50961	0.93608	124.72289
218.60001	418.55408	0.93613	124.7231
218.7	418.58792	0.93613	124.7233
218.8	418.63736	0.93583	124.72351
218.89999	418.66745	0.93739	124.72372
219	418.70288	0.93917	124.72392
219.10001	418.75241	0.9411	124.72414
219.2	418.79065	0.94225	124.72433
219.3	418.83157	0.9403	124.72455
219.39999	418.87482	0.94368	124.72475
219.5	418.92587	0.94358	124.72497
219.60001	418.96274	0.94613	124.72518
219.7	419.01007	0.94348	124.72539
219.8	419.05643	0.9439	124.72559
219.89999	419.10391	0.94816	124.72581
220	419.14664	0.94855	124.72601
220.10001	419.1785	0.94962	124.72621
220.2	419.22839	0.95107	124.72644
220.3	419.2659	0.95612	124.72664
220.39999	419.29266	0.95599	124.72684
220.5	419.33511	0.956	124.72706
220.60001	419.38431	0.95482	124.72726
220.7	419.42081	0.95731	124.72746
220.8	419.47058	0.95825	124.72769
220.89999	419.50015	0.96034	124.7279
221	419.54639	0.96069	124.7281
221.10001	419.58243	0.96033	124.72831
221.2	419.62497	0.95847	124.72852
221.3	419.66489	0.96105	124.72872
221.39999	419.69858	0.96344	124.72893
221.5	419.73688	0.96123	124.72912
221.60001	419.77838	0.96312	124.72934
221.7	419.82764	0.96244	124.72955
221.8	419.88187	0.96411	124.72975
221.89999	419.91556	0.96626	124.72996
222	419.96161	0.96857	124.73017
222.10001	419.99771	0.96841	124.73038
222.2	420.03674	0.97099	124.73059
222.3	420.07904	0.97192	124.7308
222.39999	420.12048	0.97378	124.73101
222.5	420.17374	0.97588	124.73122
222.60001	420.21442	0.97477	124.73144
222.7	420.25278	0.97359	124.73164
222.8	420.28973	0.97461	124.73186
222.89999	420.33386	0.97335	124.73206
223	420.37936	0.97606	124.73226
223.10001	420.41327	0.97838	124.73248
223.2	420.45422	0.97839	124.73268
223.3	420.49252	0.98009	124.73288
223.39999	420.53775	0.98083	124.73311
223.5	420.57864	0.98085	124.73331
223.60001	420.62164	0.9815	124.73351
223.7	420.65601	0.98337	124.73371
223.8	420.68576	0.98509	124.73392
223.89999	420.73569	0.98594	124.73412
224	420.77585	0.98975	124.73434
224.10001	420.82294	0.99073	124.73455
224.2	420.86838	0.98944	124.73476
224.3	420.90729	0.98835	124.73497
224.39999	420.94946	0.9906	124.73517
224.5	420.98611	0.99236	124.73537
224.60001	421.03595	0.99078	124.73559
224.7	421.08066	0.99077	124.73581
224.8	421.12164	0.99587	124.73601
224.89999	421.16418	0.996	124.73622
225	421.20178	0.9983	124.73643
225.10001	421.24188	0.99821	124.73663
225.2	421.29376	0.99821	124.73685
225.3	421.32599	0.99836	124.73706
225.39999	421.37976	0.99849	124.73727
225.5	421.40924	0.99814	124.73747
225.60001	421.44739	1.00029	124.73768
225.7	421.48312	1.00209	124.73789
225.8	421.53372	1.00075	124.73811
225.89999	421.56827	1.00352	124.7383
226	421.61496	1.00638	124.73853
226.10001	421.65253	1.00815	124.73872
226.2	421.68677	1.00608	124.73892
226.3	421.72607	1.00781	124.73913
226.39999	421.76352	1.01068	124.73933
226.5	421.80322	1.01311	124.73954
226.60001	421.85565	1.01058	124.73976
226.7	421.8902	1.01272	124.73997
226.8	421.93616	1.01562	124.74017
226.89999	421.98413	1.01559	124.74039
227	422.02737	1.0118	124.74059
227.10001	422.07507	1.01573	124.74081
227.2	422.11261	1.01559	124.74102
227.3	422.15866	1.01683	124.74123
227.39999	422.19553	1.01808	124.74142
227.5	422.2337	1.01808	124.74164
227.60001	422.27542	1.01606	124.74184
227.7	422.32254	1.01575	124.74206
227.8	422.35526	1.01865	124.74227
227.89999	422.40155	1.02229	124.74248
228	422.43839	1.02562	124.74268
228.10001	422.47729	1.02552	124.74289
228.2	422.51874	1.02772	124.7431
228.3	422.56378	1.02867	124.7433
228.39999	422.59485	1.02806	124.74352
228.5	422.63419	1.02989	124.74371
228.60001	422.67468	1.02938	124.74393
228.7	422.70975	1.03212	124.74413
228.8	422.74664	1.0381	124.74434
228.89999	422.78635	1.03543	124.74454
229	422.83765	1.03184	124.74475
229.10001	422.87827	1.03299	124.74496
229.2	422.92276	1.03298	124.74519
229.3	422.97076	1.03366	124.74538
229.39999	423.01102	1.03522	124.74559
229.5	423.05661	1.03288	124.7458
229.60001	423.08502	1.03556	124.74601
229.7	423.1369	1.03771	124.74621
229.8	423.18143	1.0386	124.74644
229.89999	423.21234	1.04052	124.74664
230	423.25864	1.04301	124.74684
230.10001	423.29813	1.04421	124.74706
230.2	423.34283	1.04754	124.74726
230.3	423.38501	1.04316	124.74747
230.39999	423.41864	1.04564	124.74769
230.5	423.4472	1.04769	124.74788
230.60001	423.49149	1.04787	124.7481
230.7	423.53113	1.0473	124.74831
230.8	423.56589	1.04784	124.74851
230.89999	423.59256	1.05002	124.7487
231	423.63721	1.05281	124.74892
231.10001	423.67471	1.05407	124.74913
231.2	423.71561	1.05471	124.74934
231.3	423.75943	1.05532	124.74955
231.39999	423.80069	1.05577	124.74976
231.5	423.83789	1.05583	124.74996
231.60001	423.88739	1.06041	124.75017
231.7	423.93921	1.061	124.75039
231.8	423.96768	1.06029	124.7506
231.89999	424.01685	1.05855	124.7508
232	424.05075	1.06027	124.75101
232.10001	424.08752	1.06283	124.75122
232.2	424.13242	1.06277	124.75143
232.3	424.17346	1.0647	124.75164
232.39999	424.21576	1.0652	124.75185
232.5	424.2514	1.06581	124.75206
232.60001	424.2908	1.06652	124.75226
232.7	424.3306	1.07059	124.75247
232.8	424.36584	1.07022	124.75268
232.89999	424.4014	1.07067	124.75288
233	424.44006	1.07235	124.75311
233.10001	424.47516	1.07418	124.7533
233.2	424.51382	1.07698	124.7535
233.3	424.54437	1.07575	124.75372
233.39999	424.58237	1.07518	124.75391
233.5	424.61954	1.07718	124.75412
233.60001	424.67172	1.0773	124.75433
233.7	424.70792	1.07561	124.75455
233.8	424.74936	1.07766	124.75475
233.89999	424.79462	1.07877	124.75497
234	424.84677	1.08016	124.75517
234.10001	424.8801	1.08016	124.75539
234.2	424.91904	1.0827	124.75558
234.3	424.96683	1.08264	124.75581
234.39999	425.00607	1.0852	124.75602
234.5	425.05017	1.08256	124.75622
234.60001	425.08792	1.08522	124.75642
234.7	425.12863	1.08769	124.75665
234.8	425.16568	1.0876	124.75685
234.89999	425.20609	1.09019	124.75706
235	425.24591	1.08967	124.75727
235.10001	425.28827	1.08873	124.75748
235.2	425.31757	1.09062	124.75768
235.3	425.36038	1.09	124.75789
235.39999	425.39377	1.09172	124.75809
235.5	425.43872	1.09257	124.7583
235.60001	425.46814	1.09257	124.75851
235.7	425.49783	1.09248	124.75871
235.8	425.55038	1.09484	124.75892
235.89999	425.57639	1.09308	124.75913
236	425.62497	1.09258	124.75933
236.10001	425.66333	1.09598	124.75954
236.2	425.70557	1.09854	124.75977
236.3	425.74911	1.1013	124.75997
236.39999	425.79211	1.10348	124.76017
236.5	425.84244	1.10507	124.7604
236.60001	425.88535	1.10499	124.7606
236.7	425.91376	1.10501	124.7608
236.8	425.95651	1.10282	124.76102
236.89999	425.99304	1.10514	124.76122
237	426.03381	1.1052	124.76143
237.10001	426.07056	1.10537	124.76163
237.2	426.11084	1.11005	124.76184
237.3	426.15958	1.10742	124.76206
237.39999	426.1897	1.10837	124.76228
237.5	426.2345	1.11255	124.76247
237.60001	426.26974	1.115	124.76269
237.7	426.31116	1.11301	124.76289
237.8	426.34326	1.11656	124.7631
237.89999	426.38336	1.11484	124.76331
238	426.42206	1.11588	124.76351
238.10001	426.45151	1.11491	124.76372
238.2	426.49081	1.11552	124.76393
238.3	426.5311	1.1153	124.76413
238.39999	426.56717	1.11742	124.76434
238.5	426.61465	1.1174	124.76455
238.60001	426.65579	1.12051	124.76476
238.7	426.69928	1.12238	124.76497
238.8	426.74979	1.11984	124.76518
238.89999	426.7951	1.11949	124.76539
239	426.83096	1.12247	124.76559
239.10001	426.85803	1.12473	124.7658
239.2	426.90591	1.12737	124.76601
239.3	426.94293	1.13004	124.76622
239.39999	426.99237	1.12981	124.76643
239.5	427.01889	1.13026	124.76664
239.60001	427.06717	1.13231	124.76685
239.7	427.10947	1.1348	124.76705
239.8	427.13977	1.1348	124.76726
239.89999	427.18591	1.1348	124.76746
240	427.21823	1.13702	124.76769
240.10001	427.26157	1.13699	124.76789
240.2	427.29861	1.13629	124.7681
240.3	427.34106	1.13476	124.76831
240.39999	427.37317	1.13238	124.76852
240.5	427.40518	1.13698	124.76872
240.60001	427.43942	1.13957	124.76893
240.7	427.47525	1.14193	124.76912
240.8	427.51868	1.13969	124.76935
240.89999	427.57196	1.13836	124.76955
241	427.608	1.13991	124.76975
241.10001	427.6539	1.1423	124.76998
241.2	427.69745	1.14224	124.77018
241.3	427.72897	1.14417	124.77039
241.39999	427.76981	1.14377	124.7706
241.5	427.81039	1.14317	124.77081
241.60001	427.8508	1.14726	124.771
241.7	427.89261	1.1472	124.77122
241.8	427.93533	1.1479	124.77142
241.89999	427.97565	1.15262	124.77164
242	428.01151	1.15402	124.77185
242.10001	428.05545	1.15466	124.77206
242.2	428.07965	1.15464	124.77226
242.3	428.12314	1.15505	124.77248
242.39999	428.16425	1.15715	124.77267
242.5	428.20685	1.15709	124.7729
242.60001	428.23599	1.15713	124.77311
242.7	428.27286	1.15731	124.77331
242.8	428.30206	1.1584	124.7735
242.89999	428.32968	1.16216	124.77371
243	428.37741	1.16133	124.77392
243.10001	428.41138	1.16449	124.77413
243.2	428.44785	1.16469	124.77433
243.3	428.49057	1.16449	124.77455
243.39999	428.52917	1.16458	124.77477
243.5	428.58514	1.16458	124.77496
243.60001	428.61612	1.16458	124.77517
243.7	428.65137	1.1666	124.77538
243.8	428.68826	1.16965	124.77559
243.89999	428.73291	1.17211	124.7758
244	428.76682	1.17204	124.77602
244.10001	428.81277	1.17203	124.77622
244.2	428.84842	1.17436	124.77642
244.3	428.89212	1.17428	124.77663
244.39999	428.92462	1.17658	124.77686
244.5	428.96771	1.17758	124.77706
244.60001	428.99713	1.17714	124.77727
244.7	429.03671	1.17699	124.77747
244.8	429.07446	1.17953	124.77768
244.89999	429.11002	1.17948	124.77789
245	429.14459	1.17948	124.77809
245.10001	429.18307	1.17935	124.7783
245.2	429.22409	1.17948	124.77851
245.3	429.25195	1.18195	124.77872
245.39999	429.28156	1.18196	124.77892
245.5	429.32266	1.18385	124.77913
245.60001	429.36234	1.18609	124.77934
245.7	429.4079	1.18783	124.77954
245.8	429.44818	1.18922	124.77976
245.89999	429.48923	1.18856	124.77997
246	429.52502	1.18941	124.78018
246.10001	429.56268	1.19061	124.78038
246.2	429.61044	1.1894	124.78059
246.3	429.64389	1.18941	124.7808
246.39999	429.68964	1.19183	124.78102
246.5	429.72629	1.19387	124.78122
246.60001	429.76532	1.19181	124.78143
246.7	429.80597	1.19445	124.78164
246.8	429.83804	1.19632	124.78185
246.89999	429.88162	1.19684	124.78205
247	429.91568	1.19686	124.78227
247.10001	429.95657	1.19686	124.78248
247.2	430.00372	1.19945	124.78268
247.287	430.0329	1.20004	124.78286
247.28799	430.03302	1.20011	124.78286
247.388	430.78827	1.20183	124.78352
247.48801	436.70142	1.20441	124.78838
247.588	437.63141	1.21013	124.79169
247.688	433.96085	1.24628	124.79513
247.78799	433.21823	1.27365	124.79832
247.888	434.00092	1.28794	124.8017
247.98801	434.15994	1.30546	124.80501
248.088	434.21368	1.3308	124.80842
248.188	434.15948	1.33273	124.8117
248.28799	434.28125	1.34806	124.81502
248.388	434.65262	1.36537	124.81842
248.48801	434.88934	1.38888	124.82171
248.588	435.18802	1.39592	124.82501
248.688	435.69406	1.4105	124.82842
248.78799	436.03403	1.42367	124.8317
248.888	436.3945	1.44028	124.83501
248.98801	436.93082	1.45335	124.83841
249.088	437.31503	1.47018	124.84169
249.188	437.77454	1.48644	124.84503
249.28799	438.33582	1.49821	124.84843
249.388	438.73318	1.51355	124.8517
249.48801	439.21317	1.52871	124.85502
249.588	439.79016	1.54471	124.85842
249.688	440.21533	1.56283	124.86169
249.78799	440.67899	1.58028	124.86501
249.888	441.31589	1.59152	124.86843
249.98801	441.74741	1.60406	124.87172
250.088	442.1582	1.62256	124.87502
250.188	442.72946	1.63847	124.87841
250.28799	443.15826	1.6549	124.88171
250.388	443.59061	1.67089	124.88502
250.48801	444.17447	1.68566	124.88839
250.588	444.66092	1.69944	124.8917
250.688	445.12537	1.71279	124.89502
250.78799	445.72101	1.73042	124.89843
250.888	446.11868	1.74603	124.9017
250.98801	446.5506	1.76166	124.90501
251.088	447.14221	1.7771	124.90843
251.188	447.59937	1.79517	124.9117
251.28799	448.06339	1.81273	124.915
251.388	448.66754	1.82787	124.91841
251.48801	449.11676	1.84215	124.9217
251.588	449.57068	1.85723	124.92503
251.688	450.12921	1.87223	124.92841
251.78799	450.54852	1.88587	124.93172
251.888	451.00763	1.90118	124.93501
251.98801	451.64206	1.9178	124.93842
252.088	452.10495	1.93038	124.94169
252.188	452.56821	1.9446	124.945
252.28799	453.14566	1.96124	124.94842
252.388	453.58994	1.97521	124.95173
252.48801	454.00989	1.99213	124.95503
252.588	454.56647	2.00764	124.95841
252.688	455.03931	2.02244	124.9617
252.78799	455.52295	2.03388	124.96501
252.888	456.09232	2.0499	124.9684
252.98801	456.5199	2.06517	124.97169
253.088	456.95114	2.07889	124.97501
253.188	457.53214	2.09082	124.97844
253.28799	457.95319	2.1048	124.98172
253.388	458.39554	2.11938	124.985
253.48801	458.99976	2.13475	124.9884
253.588	459.4939	2.14828	124.99171
253.688	459.89069	2.16581	124.995
253.78799	460.44318	2.17999	124.9984
253.888	460.8844	2.19361	125.00172
253.98801	461.30627	2.20868	125.00502
254.088	461.86993	2.22085	125.00842
254.188	462.32321	2.23978	125.0117
254.28799	462.77942	2.25514	125.01502
254.388	463.34698	2.27	125.01842
254.48801	463.75861	2.28376	125.02171
254.588	464.17023	2.30145	125.02502
254.688	464.73862	2.31827	125.02842
254.78799	465.21442	2.33392	125.03172
254.888	465.63239	2.34813	125.03502
254.98801	466.1824	2.36433	125.0384
255.088	466.6514	2.37975	125.04173
255.188	467.04645	2.3954	125.04501
255.28799	467.58112	2.41446	125.0484
255.388	468.0195	2.42821	125.05172
255.48801	468.41962	2.44536	125.055
255.588	468.99786	2.46204	125.05841
255.688	469.47321	2.47772	125.06174
255.78799	469.84293	2.49277	125.06501
255.888	470.36072	2.50847	125.0684
255.98801	470.84305	2.52268	125.07173
256.08801	471.21066	2.53974	125.07501
256.18799	471.72275	2.55383	125.07838
256.28799	472.24307	2.56873	125.08173
256.388	472.67172	2.58563	125.08504
256.48801	473.17911	2.6003	125.08841
256.58801	473.60046	2.6177	125.09173
256.68799	474.00381	2.63271	125.09502
256.78799	474.4725	2.64685	125.09838
256.888	474.95837	2.66474	125.10173
256.98801	475.37714	2.6808	125.10501
257.08801	475.88116	2.69558	125.10838
257.18799	476.39282	2.71035	125.11174
257.28799	476.76755	2.72702	125.11504
257.388	477.21002	2.74437	125.11838
257.48801	477.69043	2.76427	125.12173
257.58801	478.08304	2.77791	125.12502
257.68799	478.57526	2.79101	125.12837
257.78799	479.06931	2.81039	125.13173
257.888	479.47083	2.82825	125.13502
257.98801	479.94528	2.84767	125.1384
258.08801	480.4021	2.86415	125.14174
258.18799	480.73502	2.88083	125.14502
258.28799	481.20505	2.89764	125.14837
258.388	481.72034	2.9133	125.15173
258.48801	482.133	2.92648	125.15501
258.58801	482.59595	2.94101	125.15837
258.68799	483.05426	2.95313	125.16172
258.78799	483.45673	2.96864	125.16505
258.888	483.90576	2.98101	125.16838
258.98801	484.34048	2.99776	125.17172
259.08801	484.7312	3.01435	125.175
259.18799	485.22479	3.03264	125.17838
259.28799	485.71494	3.04677	125.18173
259.388	486.08191	3.06437	125.18503
259.48801	486.49271	3.08107	125.18836
259.58801	486.99936	3.09708	125.19176
259.68799	487.33264	3.11105	125.19502
259.78799	487.76288	3.12964	125.19835
259.888	488.27286	3.1498	125.20171
259.98801	488.67316	3.16752	125.20501
260.08801	489.12363	3.18373	125.20837
260.18799	489.58466	3.19987	125.21175
260.28799	489.93616	3.21576	125.21503
260.388	490.36606	3.23505	125.21838
260.48801	490.84225	3.25269	125.22174
260.58801	491.2002	3.26788	125.22502
260.68799	491.63101	3.28348	125.22836
260.78799	492.15533	3.29921	125.23174
260.888	492.49466	3.31637	125.23504
260.98801	492.89026	3.33306	125.23837
261.08801	493.34579	3.34888	125.24174
261.18799	493.72821	3.36335	125.24503
261.28799	494.15411	3.37995	125.24837
261.388	494.63568	3.39498	125.25172
261.48801	494.99307	3.41255	125.255
261.58801	495.41153	3.43048	125.25835
261.68799	495.90494	3.44461	125.26174
261.78799	496.24796	3.46115	125.26505
261.888	496.60855	3.48028	125.26836
261.98801	497.13126	3.4988	125.27175
262.08801	497.50958	3.51574	125.27505
262.18799	497.84888	3.53231	125.27835
262.28799	498.31549	3.54635	125.28174
262.388	498.69211	3.56089	125.28504
262.48801	499.07227	3.57451	125.28837
262.58801	499.54349	3.59278	125.29173
262.68799	499.90103	3.61031	125.29501
262.78799	500.32773	3.62766	125.29836
262.888	500.80383	3.64388	125.30177
262.98801	501.13034	3.66274	125.30502
263.08801	501.48508	3.67767	125.30833
263.18799	501.98138	3.69268	125.31173
263.28799	502.33124	3.70807	125.31504
263.388	502.70724	3.72496	125.31835
263.48801	503.20258	3.73861	125.32175
263.58801	503.56894	3.75674	125.32504
263.68799	503.92163	3.77392	125.32836
263.78799	504.35938	3.79489	125.33174
263.888	504.67206	3.81112	125.33504
263.98801	505.03055	3.82727	125.33836
264.08801	505.53659	3.84227	125.34174
264.18799	505.9169	3.85458	125.34504
264.28799	506.24634	3.86996	125.34834
264.388	506.74524	3.88729	125.35177
264.48801	507.06277	3.90323	125.35505
264.58801	507.38431	3.9173	125.35836
264.68799	507.84018	3.93248	125.36172
264.78799	508.20749	3.94684	125.36504
264.888	508.59302	3.96225	125.36835
264.98801	509.05905	3.97794	125.37174
265.08801	509.39178	3.99526	125.37503
265.11401	509.54556	4.00011	125.37594
